SampleIdent               : oreas 22d
TimeMeasured              : 16/08/2017 12:11:47
Application               : <Omnian>
ConditionSet              : Omnian
Instrument                : Epsilon1
InstrumentSerial          : 672 (M-672)
TubeAnode                 : Ag 50
Detector                  : SDD5
kV                        : 50.000
mA                        : 0.100
uA                        : 100
Filter                    : Ag 100
Medium                    : Air
PeakingTimeNr             : 3
ZeroReference             : -0.006660745945
GainReference             : 0.008007249795
NoiseReference            : 0.071620985866
FanoReference             : 0.127556249499
ZeroInit                  : -0.006602666806
GainInit                  : 0.008007533848
NoiseInit                 : 0.073252178729
FanoInit                  : 0.128453314304
ZeroFit                   : -0.008233567700
GainFit                   : 0.008023067378
NoiseFit                  : 0.079692393541
FanoFit                   : 0.124140836298
NormFactor                : 1.001468539238
NormRefCounts             : 66115.265625000000
NormCurCounts             : 66018.312500000000
ROI-Fit (chan)            : 250
ROI-Fit (chan)            : 4094
Chi-square                : 0.688712537289
RefPressure               : 974.60
RefTemp                   : 29.300
MeasPressure              : 1005.21
MeasTemp                  : 31.200
Delta_hPa                 : 23.986288070679
HeliumFlow                : 0.00
LiveTime                  : 8.448564800000
TrueTime                  : 12.000494000000
FastChanLiveT             : 9.648475500000
FastChanDeadT             : 2.352018500000
DeadTime                  : 3.551929200000
DeadTimePct               : 29.598
FastChanCounts            : 574426
OutputCounts              : 493236
UnderflowCounts           : 0
OverflowCounts            : -23156
TotalCounts               : 516392
NrOfChannels              : 4096
Energy (keV)	Counts	Background	Fit
-8.233568E-03	0	0	0
-2.105003E-04	0	0	0
7.812567E-03	0	0	0
1.583564E-02	0	0	0
0.0238587	0	0	0
3.188177E-02	0	0	0
3.990484E-02	0	0	0
0.0479279	0	0	0
5.595097E-02	0	0	0
6.397404E-02	0	0	0
7.199711E-02	0	0	0
8.002017E-02	0	0	0
8.804324E-02	0	0	0
9.606631E-02	0	0	0
0.1040894	0	0	0
0.1121124	0	0	0
0.1201355	0	0	0
0.1281586	0	0	0
0.1361817	0	0	0
0.1442047	0	0	0
0.1522278	0	0	0
0.1602508	0	0	0
0.1682739	0	0	0
0.176297	0	0	0
0.18432	0	0	0
0.1923431	0	0	0
0.2003662	0	0	0
0.2083893	0	0	0
0.2164123	0	0	0
0.2244354	0	0	0
0.2324585	0	0	0
0.2404815	0	0	0
0.2485046	0	0	0
0.2565277	0	0	0
0.2645507	0	0	0
0.2725738	0	0	0
0.2805969	0	0	0
0.2886199	0	0	0
0.296643	0	0	0
0.3046661	0	0	0
0.3126891	0	0	0
0.3207122	0	0	0
0.3287353	0	0	0
0.3367583	0	0	0
0.3447814	0	0	0
0.3528045	0	0	0
0.3608275	0	0	0
0.3688506	0	0	0
0.3768737	0	0	0
0.3848967	0	0	0
0.3929198	0	0	0
0.4009429	0	0	0
0.4089659	0	0	0
0.416989	0	0	0
0.4250121	0	0	0
0.4330351	0	0	0
0.4410582	0	0	0
0.4490813	0	0	0
0.4571043	0	0	0
0.4651274	0	0	0
0.4731505	0	0	0
0.4811735	0	0	0
0.4891966	0	0	0
0.4972197	0	0	0
0.5052428	0	0	0
0.5132658	1	0	0
0.5212889	0	0	0
0.529312	0	0	0
0.537335	0	0	0
0.5453581	0	0	0
0.5533811	1	0	0
0.5614042	1	0	0
0.5694273	0	0	0
0.5774503	0	0	0
0.5854734	2	0	0
0.5934965	1	0	0
0.6015195	1	0	0
0.6095426	0	0	0
0.6175657	2	0	0
0.6255888	2	0	0
0.6336118	0	0	0
0.6416349	1	0	0
0.649658	3	0	0
0.657681	6	0	0
0.6657041	10	0	0
0.6737272	4	0	0
0.6817502	5	0	0
0.6897733	7	0	0
0.6977963	5	0	0
0.7058194	8	0	0
0.7138425	9	0	0
0.7218655	8	0	0
0.7298886	10	0	0
0.7379117	17	0	0
0.7459348	21	0	0
0.7539578	24	0	0
0.7619809	20	0	0
0.770004	32	0	0
0.7780271	34	0	0
0.7860501	35	0	0
0.7940732	31	0	0
0.8020962	29	0	0
0.8101193	44	0	0
0.8181424	32	0	0
0.8261654	47	0	0
0.8341885	37	0	0
0.8422116	31	0	0
0.8502346	50	0	0
0.8582577	51	0	0
0.8662808	64	0	0
0.8743038	59	0	0
0.8823269	58	0	0
0.89035	44	0	0
0.8983731	66	0	0
0.9063961	62	0	0
0.9144192	64	0	0
0.9224423	58	0	0
0.9304653	58	0	0
0.9384884	73	0	0
0.9465114	61	0	0
0.9545345	54	0	0
0.9625576	60	0	0
0.9705806	69	0	0
0.9786037	68	0	0
0.9866268	70	0	0
0.9946498	60	0	0
1.002673	66	0	0
1.010696	60	0	0
1.018719	53	0	0
1.026742	65	0	0
1.034765	47	0	0
1.042788	66	0	0
1.050811	73	0	0
1.058834	68	0	0
1.066857	56	0	0
1.07488	61	0	0
1.082904	77	0	0
1.090927	68	0	0
1.09895	73	0	0
1.106973	55	0	0
1.114996	68	0	0
1.123019	61	0	0
1.131042	67	0	0
1.139065	67	0	0
1.147088	59	0	0
1.155111	72	0	0
1.163134	50	0	0
1.171157	62	0	0
1.17918	62	0	0
1.187204	60	0	0
1.195227	56	0	0
1.20325	74	0	0
1.211273	55	0	0
1.219296	64	0	0
1.227319	67	0	0
1.235342	60	0	0
1.243365	54	0	0
1.251388	62	0	0
1.259411	76	0	0
1.267434	61	0	0
1.275457	79	0	0
1.28348	63	0	0
1.291503	61	0	0
1.299526	65	0	0
1.307549	60	0	0
1.315573	67	0	0
1.323596	73	0	0
1.331619	58	0	0
1.339642	64	0	0
1.347665	62	0	0
1.355688	59	0	0
1.363711	74	0	0
1.371734	57	0	0
1.379757	57	0	0
1.38778	54	0	0
1.395803	57	0	0
1.403826	60	0	0
1.411849	72	0	0
1.419872	60	0	0
1.427896	54	0	0
1.435919	69	0	0
1.443942	60	0	0
1.451965	58	0	0
1.459988	67	0	0
1.468011	53	0	0
1.476034	75	0	0
1.484057	58	0	0
1.49208	61	0	0
1.500103	57	0	0
1.508126	66	0	0
1.516149	54	0	0
1.524172	62	0	0
1.532195	50	0	0
1.540218	64	0	0
1.548241	60	0	0
1.556265	61	0	0
1.564288	57	0	0
1.572311	64	0	0
1.580334	42	0	0
1.588357	52	0	0
1.59638	43	0	0
1.604403	56	0	0
1.612426	51	0	0
1.620449	42	0	0
1.628472	55	0	0
1.636495	60	0	0
1.644518	59	0	0
1.652541	55	0	0
1.660564	74	0	0
1.668588	58	0	0
1.676611	63	0	0
1.684634	73	0	0
1.692657	84	0	0
1.70068	79	0	0
1.708703	102	0	0
1.716726	89	0	0
1.724749	94	0	0
1.732772	88	0	0
1.740795	104	0	0
1.748818	98	0	0
1.756841	93	0	0
1.764864	91	0	0
1.772887	62	0	0
1.78091	92	0	0
1.788934	63	0	0
1.796957	80	0	0
1.80498	49	0	0
1.813003	56	0	0
1.821026	68	0	0
1.829049	52	0	0
1.837072	46	0	0
1.845095	42	0	0
1.853118	46	0	0
1.861141	63	0	0
1.869164	49	0	0
1.877187	48	0	0
1.88521	39	0	0
1.893233	45	0	0
1.901256	34	0	0
1.90928	44	0	0
1.917303	48	0	0
1.925326	29	0	0
1.933349	52	0	0
1.941372	33	0	0
1.949395	37	0	0
1.957418	36	0	0
1.965441	44	0	0
1.973464	36	0	0
1.981487	42	0	0
1.98951	38	0	0
1.997533	30	34.49316	35.48145
2.005556	30	33.90137	34.8457
2.013579	41	33.31445	34.24316
2.021602	41	32.73242	33.66016
2.029626	28	32.15527	33.08984
2.037649	31	31.90039	32.83887
2.045672	26	31.64551	32.58398
2.053695	32	31.39258	32.32031
2.061718	28	31.13965	32.0498
2.069741	28	30.96875	31.85156
2.077764	34	30.78516	31.63574
2.085787	32	30.58496	31.39941
2.09381	31	30.37695	31.1543
2.101833	28	30.16895	30.9082
2.109856	29	29.96387	30.66602
2.117879	35	29.75488	30.4209
2.125902	37	29.54688	30.17676
2.133925	33	29.33496	29.92773
2.141948	40	29.11816	29.67383
2.149971	25	28.89453	29.41211
2.157995	30	28.66797	29.14844
2.166018	41	28.44238	28.88672
2.174041	35	28.24316	28.6543
2.182064	29	28.04004	28.42285
2.190087	27	27.81836	28.17969
2.19811	32	27.58789	27.9375
2.206133	31	27.3584	27.70605
2.214156	24	27.18359	27.54297
2.222179	27	27.00488	27.39063
2.230202	30	26.82031	27.24805
2.238225	23	26.63281	27.11914
2.246248	39	26.43945	27
2.254272	28	26.24512	26.8916
2.262295	27	26.04883	26.79297
2.270318	36	25.85352	26.69824
2.278341	23	25.65332	26.59863
2.286364	26	25.45215	26.48926
2.294387	30	25.25098	26.36328
2.30241	15	25.0498	26.21777
2.310433	29	24.83984	26.03613
2.318456	26	24.625	25.82227
2.326479	23	24.4082	25.57813
2.334502	32	24.19141	25.30859
2.342525	27	23.97559	25.01758
2.350548	26	23.82129	24.77246
2.358571	25	23.66992	24.52051
2.366594	21	23.51758	24.26563
2.374617	23	23.36328	24.01074
2.382641	17	23.20508	23.75977
2.390664	21	23.02539	23.49805
2.398687	27	22.83496	23.23926
2.40671	30	22.63965	22.9873
2.414733	10	22.44141	22.74609
2.422756	22	22.24316	22.51563
2.430779	37	22.03125	22.2793
2.438802	30	21.80469	22.03613
2.446825	28	21.58008	21.79785
2.454848	30	21.46973	21.67773
2.462871	28	21.35156	21.55273
2.470894	15	21.2207	21.41895
2.478917	32	21.08398	21.2832
2.48694	21	20.91602	21.12598
2.494963	22	20.73438	20.96582
2.502986	15	20.5459	20.81641
2.51101	26	20.35449	20.68652
2.519033	13	20.16309	20.58691
2.527056	18	19.93945	20.48633
2.535079	13	19.69336	20.4043
2.543102	20	19.4502	20.36328
2.551125	17	19.51465	20.6709
2.559148	30	19.57129	21.00684
2.567171	31	19.60938	21.35156
2.575194	17	19.61719	21.67871
2.583217	14	19.61035	21.98828
2.59124	25	19.58789	22.2627
2.599263	17	19.55762	22.4873
2.607286	22	19.52832	22.6543
2.615309	33	19.52344	22.77148
2.623333	18	19.51855	22.80469
2.631356	22	19.49609	22.73438
2.639379	29	19.46484	22.57227
2.647402	20	19.4209	22.32422
2.655425	24	19.37012	22.01465
2.663448	25	19.32031	21.66602
2.671471	20	19.27246	21.30176
2.679494	22	19.2168	20.92969
2.687517	23	19.14746	20.56152
2.69554	17	19.07129	20.21582
2.703563	25	18.99512	19.9082
2.711586	23	18.9541	19.67773
2.719609	20	18.90527	19.4834
2.727633	12	18.84082	19.31445
2.735656	25	18.75977	19.16406
2.743679	27	18.6709	19.03711
2.751702	16	18.56543	18.91895
2.759725	18	18.45313	18.8125
2.767748	16	18.3418	18.71875
2.775771	22	18.37402	18.77637
2.783794	15	18.39355	18.82617
2.791817	15	18.4043	18.86621
2.79984	21	18.39453	18.88672
2.807863	25	18.37598	18.89844
2.815886	27	18.35059	18.90723
2.823909	24	18.32129	18.92383
2.831932	23	18.29297	18.95996
2.839955	22	18.27246	19.03711
2.847978	23	18.25195	19.16211
2.856001	17	18.22168	19.3457
2.864025	20	18.18848	19.6123
2.872048	29	18.14746	19.97852
2.880071	20	18.10352	20.4668
2.888094	19	18.05957	21.09277
2.896117	23	18.02148	21.86914
2.90414	30	17.97949	22.78125
2.912163	25	17.92871	23.80762
2.920186	24	17.87305	24.9248
2.928209	24	17.81738	26.09082
2.936232	22	17.75781	27.24707
2.944255	32	17.69336	28.32813
2.952278	26	17.62891	29.27148
2.960301	25	17.56641	30.0166
2.968324	32	17.49805	30.50098
2.976347	25	17.41992	30.68359
2.98437	30	17.33691	30.55078
2.992394	34	17.25391	30.11426
3.000417	48	17.24414	29.47656
3.00844	20	17.23242	28.61035
3.016463	31	17.21387	27.5752
3.024486	37	17.19336	26.44824
3.032509	30	17.16992	25.30469
3.040532	26	17.1416	24.21191
3.048555	24	17.10938	23.23047
3.056578	23	17.07617	22.41016
3.064601	13	17.04199	21.77832
3.072624	16	17.00781	21.35059
3.080647	24	16.96973	21.11816
3.08867	28	16.93066	21.06543
3.096694	21	16.88867	21.1582
3.104717	22	16.84375	21.36035
3.11274	15	16.7998	21.62891
3.120763	24	16.75391	21.91895
3.128786	19	16.70605	22.18359
3.136809	23	16.65625	22.38477
3.144832	31	16.60156	22.49121
3.152855	27	16.5459	22.48438
3.160878	14	16.48242	22.35059
3.168901	21	16.41602	22.09473
3.176924	18	16.34961	21.73242
3.184947	30	16.31836	21.31836
3.19297	23	16.28418	20.83789
3.200993	18	16.23633	20.30664
3.209017	19	16.18262	19.75977
3.21704	33	16.125	19.22363
3.225063	20	16.05566	18.70801
3.233086	23	15.98047	18.2334
3.241109	7	15.90527	17.81738
3.249132	22	15.89453	17.52637
3.257155	13	15.87891	17.29297
3.265178	13	15.84668	17.10254
3.273201	16	15.80664	16.95898
3.281224	24	15.7627	16.85742
3.289247	18	15.71094	16.78711
3.29727	19	15.6543	16.74121
3.305293	22	15.59863	16.71582
3.313316	17	15.56543	16.72363
3.321339	27	15.53027	16.72949
3.329362	14	15.48438	16.71777
3.337385	11	15.43262	16.68652
3.345409	6	15.38086	16.6377
3.353432	20	15.33301	16.57031
3.361455	16	15.28516	16.48145
3.369478	24	15.23633	16.37109
3.377501	20	15.18555	16.24414
3.385524	19	15.12695	16.09668
3.393547	15	15.06445	15.93848
3.40157	16	15.00195	15.78223
3.409593	12	14.95117	15.64258
3.417616	14	14.89551	15.50879
3.425639	18	14.83594	15.38574
3.433662	14	14.77441	15.27637
3.441685	18	14.71289	15.18457
3.449708	14	14.65723	15.11621
3.457731	12	14.58789	15.04883
3.465755	18	14.51953	14.99414
3.473778	17	14.47266	14.9707
3.481801	15	14.42676	14.95215
3.489824	9	14.4082	14.96191
3.497847	14	14.38379	14.96289
3.50587	16	14.35938	14.95801
3.513893	13	14.33594	14.94629
3.521916	13	14.31055	14.92383
3.529939	15	14.27637	14.88281
3.537962	10	14.23828	14.83105
3.545985	23	14.2002	14.77441
3.554008	21	14.16992	14.72559
3.562032	18	14.13965	14.67969
3.570055	14	14.10059	14.63477
3.578078	11	14.05762	14.59961
3.586101	10	14.01563	14.58203
3.594124	15	13.98438	14.59766
3.602147	7	13.95313	14.6377
3.61017	18	13.91504	14.69434
3.618193	16	13.87305	14.77051
3.626216	18	13.83203	14.86523
3.634239	12	13.7998	14.98438
3.642262	13	13.76563	15.1084
3.650285	21	13.72852	15.22656
3.658308	14	13.68848	15.33203
3.666331	14	13.64941	15.41699
3.674354	17	13.6123	15.47656
3.682377	14	13.57422	15.50098
3.690401	17	13.53516	15.4834
3.698424	23	13.49512	15.4248
3.706447	17	13.45117	15.32227
3.71447	15	13.40527	15.18262
3.722493	12	13.35938	15.01074
3.730516	8	13.3125	14.81543
3.738539	12	13.2666	14.60547
3.746562	10	13.21387	14.38281
3.754585	16	13.15723	14.15625
3.762608	16	13.09961	13.9375
3.770631	14	13.08105	13.76953
3.778654	20	13.05566	13.61035
3.786677	16	13.02441	13.46191
3.7947	15	12.98828	13.32813
3.802723	10	12.95313	13.21094
3.810746	20	12.91309	13.10547
3.818769	13	12.86816	13.00977
3.826793	11	12.82422	12.92676
3.834816	18	12.79492	12.86914
3.842839	13	12.76367	12.81641
3.850862	13	12.73242	12.77051
3.858885	19	12.69824	12.72754
3.866908	12	12.66309	12.6875
3.874931	11	12.62598	12.65039
3.882954	16	12.58594	12.6123
3.890977	16	12.54492	12.57617
3.899	14	12.50098	12.54102
3.907023	15	12.45605	12.50684
3.915046	21	12.41211	12.47656
3.923069	17	12.36621	12.44824
3.931093	11	12.31934	12.4209
3.939116	18	12.27246	12.39648
3.947139	15	12.22266	12.37109
3.955162	19	12.17188	12.3457
3.963185	15	12.12109	12.32129
3.971208	19	12.07422	12.29883
3.979231	15	12.02148	12.27051
3.987254	14	11.96973	12.23828
3.995277	16	11.93945	12.22363
4.0033	9	11.89941	12.19336
4.011323	18	11.85938	12.15723
4.019346	19	11.82617	12.12305
4.027369	12	11.78809	12.07715
4.035392	15	11.74902	12.02637
4.043416	11	11.7168	11.97852
4.051438	7	11.68555	11.92676
4.059462	16	11.64941	11.86914
4.067485	8	11.60742	11.80469
4.075508	12	11.56543	11.74023
4.083531	15	11.52832	11.68262
4.091554	14	11.4873	11.62207
4.099577	15	11.44629	11.56445
4.1076	15	11.41309	11.51758
4.115623	16	11.37988	11.47168
4.123646	17	11.3418	11.4248
4.131669	13	11.30273	11.37695
4.139692	10	11.25879	11.32617
4.147716	18	11.21289	11.27441
4.155738	10	11.16699	11.22363
4.163762	8	11.12598	11.17676
4.171784	22	11.08301	11.12891
4.179808	5	11.03418	11.0752
4.18783	6	10.9834	11.01953
4.195854	6	10.93262	10.96484
4.203877	11	10.90039	10.92773
4.2119	14	10.8623	10.88574
4.219923	10	10.81641	10.83594
4.227946	10	10.76758	10.7832
4.235969	16	10.71875	10.73145
4.243992	16	10.67188	10.68164
4.252015	10	10.61035	10.61816
4.260038	10	10.54883	10.55469
4.268061	14	10.57227	10.57715
4.276084	10	10.58887	10.59277
4.284108	10	10.58301	10.58789
4.29213	5	10.56836	10.57324
4.300154	17	10.55273	10.55957
4.308177	14	10.54102	10.55176
4.3162	10	10.52734	10.54297
4.324223	12	10.5127	10.53613
4.332246	9	10.49805	10.53516
4.340269	11	10.4834	10.54004
4.348292	10	10.46875	10.55273
4.356315	11	10.45508	10.57715
4.364338	15	10.43848	10.61328
4.372361	22	10.41699	10.66211
4.380384	17	10.39355	10.73145
4.388407	11	10.36816	10.8252
4.39643	17	10.3418	10.94629
4.404453	10	10.30859	11.09375
4.412477	12	10.27246	11.27246
4.4205	14	10.23535	11.48438
4.428523	23	10.22852	11.75977
4.436546	9	10.21875	12.05859
4.444569	17	10.19824	12.36719
4.452592	8	10.1709	12.67871
4.460615	11	10.14063	12.98535
4.468638	16	10.10254	13.26953
4.476661	9	10.06055	13.52051
4.484684	11	10.01855	13.72949
4.492707	9	10.0127	13.91992
4.500731	16	10.00098	14.04297
4.508753	16	9.980469	14.0918
4.516777	26	9.956055	14.07031
4.524799	14	9.931641	13.9873
4.532823	11	9.90332	13.84766
4.540846	23	9.874023	13.66602
4.548869	19	9.84375	13.45703
4.556892	16	9.821289	13.24512
4.564915	6	9.794922	13.03223
4.572938	18	9.766602	12.83105
4.580961	13	9.736328	12.65137
4.588984	5	9.704102	12.49707
4.597007	13	9.669922	12.37109
4.60503	10	9.635742	12.27148
4.613053	14	9.601563	12.19141
4.621076	18	9.566406	12.125
4.629099	6	9.543945	12.07324
4.637123	12	9.517578	12.01172
4.645145	8	9.491211	11.93652
4.653169	10	9.464844	11.84082
4.661191	9	9.43457	11.71777
4.669215	15	9.401367	11.56738
4.677238	11	9.367188	11.39063
4.685261	15	9.333008	11.19434
4.693284	13	9.30957	10.99316
4.701307	9	9.28418	10.78125
4.70933	8	9.258789	10.56738
4.717353	16	9.230469	10.35352
4.725376	13	9.200195	10.14746
4.733399	7	9.166992	9.952148
4.741422	10	9.132813	9.772461
4.749445	11	9.098633	9.611328
4.757468	3	9.066406	9.472656
4.765491	11	9.035156	9.353516
4.773515	9	9.00293	9.25293
4.781538	7	8.970703	9.168945
4.789561	8	8.9375	9.099609
4.797584	13	8.901367	9.041992
4.805607	8	8.865234	8.99707
4.81363	9	8.823242	8.957031
4.821653	12	8.777344	8.923828
4.829676	11	8.730469	8.899414
4.837699	10	8.682617	8.881836
4.845722	9	8.634766	8.87207
4.853745	9	8.623047	8.904297
4.861768	8	8.608398	8.9375
4.869792	8	8.59375	8.974609
4.877814	12	8.578125	9.011719
4.885838	7	8.55957	9.043945
4.893861	4	8.538086	9.070313
4.901884	12	8.516602	9.09082
4.909907	11	8.494141	9.102539
4.91793	12	8.46875	9.101563
4.925953	10	8.44043	9.086914
4.933976	10	8.40918	9.057617
4.941999	4	8.375977	9.013672
4.950022	9	8.342773	8.958984
4.958045	14	8.311523	8.896484
4.966068	16	8.27832	8.824219
4.974091	7	8.244141	8.743164
4.982114	10	8.207031	8.655273
4.990138	13	8.169922	8.56543
4.99816	9	8.12793	8.469727
5.006184	5	8.083984	8.374023
5.014206	9	8.039063	8.282227
5.02223	7	8.012695	8.211914
5.030253	6	7.986328	8.146484
5.038276	11	7.947266	8.073242
5.046299	8	7.901367	7.999023
5.054322	12	7.851563	7.926758
5.062345	6	7.800781	7.856445
5.070368	8	7.75	7.791016
5.078391	14	7.742188	7.771484
5.086414	6	7.746094	7.767578
5.094437	6	7.748047	7.763672
5.10246	7	7.739258	7.75
5.110484	4	7.725586	7.734375
5.118506	8	7.706055	7.711914
5.12653	15	7.682617	7.688477
5.134552	8	7.657227	7.664063
5.142576	10	7.630859	7.639648
5.150599	7	7.602539	7.614258
5.158622	12	7.560547	7.576172
5.166645	9	7.511719	7.532227
5.174668	10	7.462891	7.490234
5.182691	12	7.456055	7.492188
5.190714	14	7.448242	7.496094
5.198737	15	7.432617	7.493164
5.20676	7	7.410156	7.485352
5.214783	9	7.380859	7.473633
5.222806	8	7.347656	7.459961
5.230829	6	7.314453	7.448242
5.238853	8	7.283203	7.44043
5.246876	9	7.250977	7.431641
5.254899	9	7.217773	7.421875
5.262922	11	7.18457	7.411133
5.270945	7	7.150391	7.397461
5.278968	9	7.103516	7.369141
5.286991	7	7.050781	7.330078
5.295014	7	6.998047	7.287109
5.303037	6	7.010742	7.304688
5.31106	7	7.020508	7.314453
5.319083	9	7.005859	7.294922
5.327106	9	6.978516	7.257813
5.335129	11	6.951172	7.21582
5.343153	13	6.949219	7.196289
5.351175	7	6.942383	7.168945
5.359199	14	6.923828	7.126953
5.367221	11	6.897461	7.078125
5.375245	6	6.869141	7.026367
5.383268	16	6.824219	6.958008
5.391291	7	6.770508	6.882813
5.399314	13	6.716797	6.80957
5.407337	8	6.710938	6.786133
5.41536	12	6.705078	6.765625
5.423383	6	6.691406	6.738281
5.431406	3	6.672852	6.708984
5.439429	11	6.638672	6.666016
5.447452	10	6.595703	6.616211
5.455475	9	6.553711	6.568359
5.463499	10	6.526367	6.536133
5.471521	9	6.492188	6.499023
5.479545	6	6.444336	6.449219
5.487567	8	6.389648	6.392578
5.495591	12	6.334961	6.337891
5.503614	13	6.325195	6.326172
5.511637	5	6.291016	6.291992
5.51966	9	6.257813	6.258789
5.527683	11	6.271484	6.271484
5.535706	9	6.276367	6.277344
5.543729	8	6.248047	6.248047
5.551752	7	6.202148	6.203125
5.559775	12	6.157227	6.157227
5.567798	2	6.178711	6.178711
5.575821	9	6.196289	6.197266
5.583844	6	6.183594	6.18457
5.591867	3	6.15625	6.157227
5.599891	9	6.128906	6.129883
5.607913	11	6.087891	6.09082
5.615937	9	6.03418	6.038086
5.62396	9	5.981445	5.985352
5.631983	5	5.972656	5.977539
5.640006	9	5.963867	5.970703
5.648029	7	5.946289	5.957031
5.656052	5	5.925781	5.939453
5.664075	10	5.880859	5.900391
5.672098	5	5.824219	5.852539
5.680121	7	5.768555	5.80957
5.688144	9	5.746094	5.803711
5.696167	5	5.714844	5.798828
5.70419	10	5.654297	5.774414
5.712214	3	5.580078	5.75
5.720237	3	5.504883	5.744141
5.72826	11	5.529297	5.862305
5.736283	8	5.53125	5.988281
5.744306	4	5.533203	6.151367
5.752329	8	5.536133	6.363281
5.760352	10	5.53418	6.62207
5.768375	8	5.496094	6.90625
5.776398	6	5.438477	7.239258
5.784421	7	5.382813	7.643555
5.792444	11	5.421875	8.21875
5.800467	7	5.458008	8.862305
5.80849	8	5.451172	9.530273
5.816514	13	5.423828	10.23242
5.824536	8	5.396484	10.97461
5.83256	7	5.362305	11.72949
5.840582	16	5.311523	12.46484
5.848606	16	5.260742	13.16895
5.856629	11	5.25	13.85352
5.864652	11	5.240234	14.44824
5.872675	15	5.220703	14.91895
5.880698	15	5.196289	15.24902
5.888721	16	5.143555	15.39551
5.896744	16	5.077148	15.36426
5.904767	16	5.010742	15.16895
5.91279	17	4.992188	14.86328
5.920813	12	4.964844	14.40234
5.928836	12	4.893555	13.77246
5.936859	13	4.801758	13.02051
5.944882	14	4.709961	12.19727
5.952906	17	4.764648	11.47559
5.960928	11	4.796875	10.71582
5.968952	18	4.814453	9.951172
5.976974	12	4.81543	9.202148
5.984998	11	4.808594	8.495117
5.993021	12	4.764648	7.8125
6.001044	6	4.701172	7.180664
6.009067	1	4.637695	6.623047
6.01709	11	4.691406	6.254883
6.025113	0	4.741211	5.953125
6.033136	8	4.741211	5.666016
6.041159	11	4.716797	5.411133
6.049182	12	4.692383	5.205078
6.057205	6	4.661133	5.033203
6.065228	9	4.613281	4.880859
6.073252	8	4.566406	4.754883
6.081275	6	4.555664	4.689453
6.089298	5	4.544922	4.640625
6.097321	8	4.524414	4.597656
6.105344	9	4.5	4.5625
6.113367	5	4.442383	4.507813
6.12139	12	4.367188	4.452148
6.129413	1	4.293945	4.417969
6.137436	10	4.279297	4.474609
6.145459	9	4.253906	4.56543
6.153482	11	4.173828	4.668945
6.161505	10	4.067383	4.845703
6.169528	13	3.961914	5.169922
6.177551	11	4.041992	5.889648
6.185575	8	4.099609	6.885742
6.193597	11	4.125	8.262695
6.201621	9	4.12793	10.18164
6.209644	20	4.120117	12.84277
6.217667	21	4.071289	16.45313
6.22569	22	4.00293	21.3125
6.233713	34	3.935547	27.76953
6.241736	32	4	36.32422
6.249759	32	4.060547	47.24023
6.257782	66	4.067383	60.88086
6.265805	67	4.046875	77.67285
6.273828	93	4.026367	98.00586
6.281851	127	3.998047	122.1494
6.289875	136	3.953125	150.2607
6.297897	207	3.90918	182.3545
6.305921	192	3.898438	218.2646
6.313943	231	3.886719	257.5293
6.321967	313	3.867188	299.4648
6.329989	344	3.842773	343.1514
6.338013	378	3.78125	387.4014
6.346036	436	3.701172	430.8936
6.354059	511	3.623047	472.1758
6.362082	526	3.609375	509.7959
6.370105	546	3.584961	542.1992
6.378128	562	3.499023	567.998
6.386151	582	3.384766	586.1133
6.394174	607	3.271484	595.7725
6.402197	631	3.371094	596.751
6.41022	597	3.450195	588.7803
6.418243	586	3.482422	572.1963
6.426267	568	3.486328	547.7588
6.434289	480	3.477539	516.54
6.442313	496	3.426758	479.8164
6.450336	454	3.355469	439.0645
6.458359	367	3.286133	395.8213
6.466382	341	3.358398	351.71
6.474405	317	3.428711	307.9521
6.482428	286	3.44043	265.6807
6.490451	216	3.423828	225.8916
6.498474	194	3.408203	189.332
6.506497	180	3.381836	156.4648
6.51452	128	3.34082	127.5225
6.522543	89	3.299805	102.5557
6.530566	91	3.289063	81.46191
6.538589	70	3.279297	63.9502
6.546612	53	3.261719	49.66797
6.554636	26	3.240234	38.22656
6.562659	32	3.177734	29.17871
6.570682	27	3.09668	22.14746
6.578705	17	3.015625	16.78125
6.586728	14	3.001953	12.81055
6.594751	20	2.974609	9.871094
6.602774	10	2.884766	7.667969
6.610797	7	2.764648	6.040039
6.61882	6	2.647461	4.862305
6.626843	8	2.766602	4.245117
6.634866	7	2.859375	3.834961
6.642889	5	2.93457	3.571289
6.650912	5	2.974609	3.385742
6.658936	6	2.998047	3.259766
6.666958	4	2.980469	3.146484
6.674982	7	2.942383	3.046875
6.683005	4	2.90625	2.970703
6.691028	6	3.005859	3.044922
6.699051	10	3.100586	3.125
6.707074	5	3.143555	3.15918
6.715097	4	3.161133	3.170898
6.72312	6	3.178711	3.18457
6.731143	6	3.185547	3.189453
6.739166	7	3.180664	3.183594
6.747189	7	3.175781	3.179688
6.755212	6	3.18457	3.191406
6.763235	10	3.194336	3.203125
6.771258	4	3.193359	3.207031
6.779282	4	3.1875	3.209961
6.787304	9	3.152344	3.1875
6.795328	11	3.102539	3.157227
6.80335	6	3.052734	3.137695
6.811374	10	3.073242	3.204102
6.819397	6	3.080078	3.280273
6.82742	10	3.032227	3.333008
6.835443	5	2.958008	3.404297
6.843466	15	2.884766	3.538086
6.851489	5	2.986328	3.932617
6.859512	8	3.068359	4.419922
6.867535	12	3.128906	5.032227
6.875558	13	3.163086	5.805664
6.883581	13	3.18457	6.801758
6.891604	16	3.172852	8.058594
6.899627	14	3.146484	9.651367
6.90765	15	3.120117	11.65918
6.915674	25	3.201172	14.25391
6.923697	24	3.277344	17.37988
6.93172	23	3.31543	21.05762
6.939743	23	3.335938	25.34082
6.947766	31	3.355469	30.2627
6.955789	38	3.362305	35.79883
6.963812	53	3.363281	41.91211
6.971835	63	3.364258	48.53027
6.979858	51	3.367188	55.53711
6.987881	60	3.370117	62.77832
6.995904	72	3.368164	70.0625
7.003927	84	3.365234	77.17969
7.01195	86	3.335938	83.875
7.019973	73	3.293945	89.92871
7.027997	102	3.25293	95.125
7.03602	104	3.268555	99.31641
7.044043	104	3.274414	102.2686
7.052066	102	3.234375	103.8203
7.060089	84	3.169922	103.9297
7.068112	104	3.107422	102.6123
7.076135	99	3.193359	100.0684
7.084158	86	3.262695	96.24414
7.092181	74	3.31543	91.29688
7.100204	86	3.345703	85.41895
7.108227	64	3.364258	78.84277
7.11625	67	3.356445	71.78809
7.124273	56	3.335938	64.50195
7.132297	48	3.31543	57.21289
7.140319	51	3.381836	50.20313
7.148343	46	3.443359	43.54199
7.156365	41	3.477539	37.33301
7.164389	27	3.49707	31.67676
7.172412	32	3.513672	26.6377
7.180435	28	3.521484	22.22949
7.188458	13	3.526367	18.44727
7.196481	14	3.52832	15.25977
7.204504	24	3.52832	12.62402
7.212527	12	3.52832	10.48047
7.22055	10	3.526367	8.766602
7.228573	6	3.523438	7.419922
7.236596	5	3.499023	6.358398
7.244619	5	3.463867	5.537109
7.252643	12	3.428711	4.917969
7.260665	10	3.439453	4.503906
7.268689	4	3.444336	4.208008
7.276711	7	3.410156	3.969727
7.284735	4	3.357422	3.787109
7.292758	7	3.304688	3.662109
7.300781	4	3.374023	3.704102
7.308804	5	3.427734	3.769531
7.316827	3	3.472656	3.856445
7.32485	4	3.498047	3.955078
7.332873	8	3.515625	4.072266
7.340896	6	3.511719	4.195313
7.348919	7	3.49707	4.333984
7.356942	9	3.482422	4.499023
7.364965	9	3.535156	4.754883
7.372988	7	3.581055	5.02832
7.381011	3	3.609375	5.303711
7.389035	12	3.626953	5.585938
7.397058	5	3.638672	5.87207
7.405081	11	3.645508	6.160156
7.413104	7	3.65332	6.444336
7.421127	4	3.655273	6.713867
7.42915	5	3.65332	6.958984
7.437173	8	3.648438	7.173828
7.445196	8	3.643555	7.352539
7.453219	6	3.637695	7.488281
7.461242	11	3.619141	7.5625
7.469265	10	3.591797	7.577148
7.477288	5	3.564453	7.537109
7.485312	11	3.572266	7.480469
7.493334	5	3.576172	7.369141
7.501358	13	3.549805	7.181641
7.50938	12	3.508789	6.939453
7.517404	4	3.467773	6.665039
7.525427	3	3.517578	6.458008
7.53345	6	3.555664	6.223633
7.541473	6	3.587891	5.975586
7.549496	3	3.610352	5.71875
7.557519	6	3.62793	5.46582
7.565542	6	3.628906	5.208008
7.573565	5	3.621094	4.960938
7.581588	7	3.613281	4.734375
7.589611	4	3.645508	4.571289
7.597634	5	3.675781	4.429688
7.605658	4	3.694336	4.299805
7.61368	5	3.706055	4.186523
7.621704	7	3.709961	4.085938
7.629726	5	3.708984	3.999023
7.63775	2	3.708008	3.928711
7.645773	6	3.716797	3.882813
7.653796	3	3.719727	3.842773
7.661819	3	3.716797	3.806641
7.669842	5	3.709961	3.775391
7.677865	6	3.704102	3.75
7.685888	3	3.695313	3.727539
7.693911	4	3.678711	3.701172
7.701934	5	3.661133	3.676758
7.709957	3	3.666992	3.677734
7.71798	6	3.669922	3.677734
7.726003	3	3.650391	3.655273
7.734026	0	3.620117	3.623047
7.74205	7	3.588867	3.591797
7.750072	5	3.621094	3.624023
7.758096	6	3.641602	3.645508
7.766119	7	3.662109	3.666992
7.774142	4	3.683594	3.688477
7.782165	3	3.703125	3.710938
7.790188	6	3.708008	3.71875
7.798211	2	3.705078	3.720703
7.806234	7	3.702148	3.724609
7.814257	6	3.726563	3.758789
7.82228	5	3.748047	3.793945
7.830303	5	3.760742	3.824219
7.838326	3	3.767578	3.856445
7.846349	6	3.769531	3.889648
7.854373	3	3.768555	3.929688
7.862396	5	3.766602	3.982422
7.870419	5	3.772461	4.054688
7.878442	5	3.772461	4.139648
7.886465	10	3.769531	4.239258
7.894488	8	3.764648	4.358398
7.902511	7	3.759766	4.500977
7.910534	7	3.75	4.665039
7.918557	2	3.734375	4.849609
7.92658	5	3.719727	5.060547
7.934603	5	3.722656	5.31543
7.942626	4	3.725586	5.592773
7.950649	11	3.710938	5.874023
7.958673	2	3.688477	6.162109
7.966695	9	3.666016	6.458984
7.974719	9	3.680664	6.794922
7.982741	6	3.682617	7.112305
7.990765	7	3.685547	7.414063
7.998788	8	3.709961	7.711914
8.006811	10	3.734375	7.976563
8.014833	4	3.743164	8.18457
8.022857	11	3.745117	8.335938
8.03088	8	3.74707	8.433594
8.038903	11	3.759766	8.483398
8.046926	12	3.771484	8.473633
8.054949	15	3.77832	8.401367
8.062972	9	3.782227	8.272461
8.070995	4	3.785156	8.09375
8.079019	6	3.787109	7.871094
8.087042	6	3.787109	7.615234
8.095064	10	3.78418	7.330078
8.103087	8	3.77832	7.02832
8.111111	8	3.771484	6.72168
8.119134	6	3.771484	6.423828
8.127157	5	3.769531	6.136719
8.13518	4	3.760742	5.860352
8.143203	10	3.748047	5.603516
8.151226	5	3.735352	5.373047
8.159249	3	3.737305	5.185547
8.167272	7	3.737305	5.027344
8.175295	2	3.727539	4.887695
8.183318	6	3.713867	4.770508
8.191341	3	3.700195	4.677734
8.199365	4	3.691406	4.612305
8.207387	2	3.678711	4.560547
8.21541	4	3.666016	4.521484
8.223433	2	3.69043	4.529297
8.231457	6	3.711914	4.541016
8.23948	7	3.723633	4.545898
8.247502	4	3.729492	4.544922
8.255526	5	3.735352	4.541016
8.263549	7	3.740234	4.532227
8.271572	3	3.743164	4.515625
8.279595	4	3.745117	4.493164
8.287618	7	3.749023	4.466797
8.295641	5	3.753906	4.43457
8.303664	7	3.754883	4.394531
8.311687	7	3.753906	4.347656
8.319711	8	3.75	4.294922
8.327733	2	3.743164	4.237305
8.335756	2	3.736328	4.179688
8.34378	7	3.734375	4.12793
8.351803	2	3.731445	4.077148
8.359826	3	3.722656	4.022461
8.367848	3	3.708984	3.96875
8.375872	4	3.696289	3.919922
8.383895	2	3.696289	3.888672
8.391918	4	3.695313	3.863281
8.399941	7	3.686523	3.836914
8.407964	8	3.674805	3.813477
8.415987	9	3.662109	3.798828
8.42401	4	3.646484	3.789063
8.432034	8	3.628906	3.787109
8.440057	3	3.611328	3.796875
8.448079	2	3.632813	3.858398
8.456102	6	3.65332	3.931641
8.464126	5	3.664063	4.011719
8.472149	4	3.670898	4.104492
8.480172	6	3.677734	4.216797
8.488194	3	3.678711	4.34375
8.496218	5	3.677734	4.490234
8.504241	6	3.675781	4.658203
8.512264	5	3.681641	4.857422
8.520288	5	3.6875	5.078125
8.52831	5	3.688477	5.313477
8.536333	10	3.6875	5.563477
8.544356	5	3.683594	5.825195
8.55238	7	3.677734	6.094727
8.560402	5	3.672852	6.366211
8.568425	9	3.667969	6.634766
8.576448	7	3.662109	6.891602
8.584472	6	3.650391	7.124023
8.592495	7	3.635742	7.327148
8.600517	6	3.621094	7.498047
8.608541	8	3.62207	7.644531
8.616564	5	3.621094	7.746094
8.624587	5	3.612305	7.791992
8.63261	5	3.600586	7.785156
8.640633	9	3.587891	7.728516
8.648656	11	3.569336	7.618164
8.656679	9	3.547852	7.459961
8.664702	10	3.527344	7.261719
8.672726	7	3.548828	7.073242
8.680748	10	3.568359	6.855469
8.688771	3	3.578125	6.609375
8.696795	9	3.583984	6.34668
8.704818	10	3.589844	6.081055
8.712841	3	3.589844	5.8125
8.720863	8	3.585938	5.548828
8.728887	7	3.582031	5.301758
8.73691	10	3.588867	5.083008
8.744933	5	3.595703	4.887695
8.752956	2	3.59668	4.710938
8.760979	6	3.594727	4.557617
8.769002	7	3.59082	4.428711
8.777025	11	3.585938	4.324219
8.785048	4	3.581055	4.243164
8.793072	6	3.576172	4.186523
8.801094	3	3.569336	4.147461
8.809117	6	3.557617	4.121094
8.817141	5	3.541992	4.107422
8.825164	4	3.527344	4.106445
8.833187	9	3.527344	4.128906
8.841209	6	3.526367	4.158203
8.849233	6	3.518555	4.183594
8.857256	4	3.506836	4.206055
8.865279	6	3.494141	4.227539
8.873302	4	3.473633	4.237305
8.881325	5	3.449219	4.237305
8.889348	7	3.425781	4.231445
8.897371	3	3.447266	4.264648
8.905395	3	3.467773	4.286133
8.913418	9	3.476563	4.288086
8.92144	5	3.480469	4.275391
8.929463	7	3.484375	4.253906
8.937487	2	3.482422	4.21875
8.94551	8	3.477539	4.173828
8.953532	7	3.47168	4.123047
8.961555	2	3.480469	4.083008
8.969579	8	3.488281	4.039063
8.977602	3	3.490234	3.987305
8.985625	3	3.488281	3.932617
8.993648	7	3.485352	3.876953
9.001671	6	3.480469	3.823242
9.009694	6	3.476563	3.772461
9.017717	3	3.47168	3.725586
9.025741	5	3.46582	3.681641
9.033763	5	3.454102	3.634766
9.041786	6	3.438477	3.589844
9.049809	9	3.422852	3.549805
9.057833	6	3.422852	3.529297
9.065856	2	3.420898	3.510742
9.073878	4	3.412109	3.488281
9.081902	3	3.400391	3.466797
9.089925	1	3.387695	3.447266
9.097948	3	3.367188	3.420898
9.105971	4	3.34082	3.391602
9.113994	7	3.31543	3.365234
9.122017	7	3.337891	3.386719
9.13004	5	3.358398	3.408203
9.138063	4	3.366211	3.416992
9.146087	3	3.368164	3.418945
9.154109	7	3.369141	3.421875
9.162132	2	3.364258	3.417969
9.170156	5	3.355469	3.410156
9.178179	3	3.34668	3.402344
9.186202	4	3.359375	3.414063
9.194224	4	3.369141	3.423828
9.202248	3	3.373047	3.426758
9.210271	3	3.373047	3.425781
9.218294	5	3.370117	3.420898
9.226317	10	3.366211	3.415039
9.23434	4	3.362305	3.40918
9.242363	5	3.358398	3.40332
9.250386	3	3.353516	3.395508
9.25841	5	3.342773	3.382813
9.266433	1	3.330078	3.368164
9.274455	5	3.317383	3.353516
9.282478	5	3.31543	3.350586
9.290502	3	3.310547	3.34375
9.298525	3	3.300781	3.333984
9.306548	4	3.290039	3.322266
9.31457	6	3.27832	3.311523
9.322594	5	3.257813	3.291992
9.330617	2	3.232422	3.267578
9.33864	5	3.207031	3.244141
9.346663	1	3.237305	3.277344
9.354686	1	3.263672	3.306641
9.362709	1	3.277344	3.324219
9.370732	3	3.28418	3.336914
9.378756	3	3.289063	3.348633
9.386778	5	3.287109	3.355469
9.394801	5	3.282227	3.360352
9.402824	5	3.276367	3.367188
9.410848	7	3.295898	3.401367
9.418871	3	3.313477	3.436523
9.426893	4	3.325195	3.46875
9.434916	1	3.333008	3.500977
9.44294	4	3.337891	3.53418
9.450963	4	3.341797	3.568359
9.458986	6	3.34375	3.605469
9.467009	5	3.344727	3.643555
9.475032	6	3.34375	3.68457
9.483055	5	3.34375	3.726563
9.491078	2	3.342773	3.770508
9.499102	4	3.341797	3.814453
9.507124	4	3.349609	3.867188
9.515147	2	3.354492	3.914063
9.52317	3	3.354492	3.955078
9.531194	7	3.353516	3.990234
9.539217	8	3.351563	4.020508
9.547239	4	3.341797	4.035156
9.555263	4	3.327148	4.039063
9.563286	5	3.3125	4.035156
9.571309	3	3.337891	4.063477
9.579332	7	3.360352	4.081055
9.587355	5	3.374023	4.082031
9.595378	7	3.382813	4.070313
9.603401	2	3.388672	4.049805
9.611424	6	3.390625	4.017578
9.619448	6	3.389648	3.978516
9.62747	3	3.388672	3.936523
9.635493	4	3.397461	3.900391
9.643517	7	3.40625	3.863281
9.65154	2	3.415039	3.825195
9.659563	2	3.423828	3.788086
9.667585	4	3.429688	3.75
9.675609	4	3.432617	3.710938
9.683632	6	3.435547	3.674805
9.691655	3	3.4375	3.640625
9.699678	7	3.438477	3.609375
9.707701	3	3.433594	3.575195
9.715724	4	3.425781	3.542969
9.723747	3	3.417969	3.513672
9.731771	8	3.431641	3.508789
9.739793	5	3.444336	3.505859
9.747816	5	3.448242	3.49707
9.755839	3	3.449219	3.486328
9.763863	1	3.447266	3.476563
9.771886	4	3.438477	3.459961
9.779908	1	3.425781	3.442383
9.787931	5	3.413086	3.424805
9.795955	4	3.432617	3.442383
9.803978	4	3.451172	3.458008
9.812001	4	3.464844	3.469727
9.820024	5	3.474609	3.477539
9.828047	8	3.480469	3.483398
9.83607	2	3.485352	3.487305
9.844093	3	3.488281	3.490234
9.852117	8	3.488281	3.489258
9.860139	5	3.485352	3.486328
9.868162	5	3.481445	3.482422
9.876185	4	3.476563	3.477539
9.884209	5	3.47168	3.472656
9.892232	5	3.482422	3.483398
9.900254	6	3.492188	3.494141
9.908278	3	3.5	3.500977
9.916301	1	3.501953	3.503906
9.924324	2	3.501953	3.503906
9.932347	3	3.499023	3.500977
9.94037	4	3.494141	3.496094
9.948393	2	3.489258	3.492188
9.956416	8	3.5	3.50293
9.964439	5	3.510742	3.513672
9.972463	2	3.519531	3.522461
9.980485	7	3.521484	3.525391
9.988508	7	3.520508	3.524414
9.996531	3	3.516602	3.521484
10.00455	3	3.511719	3.516602
10.01258	6	3.506836	3.511719
10.0206	6	3.511719	3.516602
10.02862	2	3.515625	3.520508
10.03665	3	3.520508	3.525391
10.04467	3	3.524414	3.529297
10.05269	4	3.53418	3.539063
10.06072	3	3.541016	3.545898
10.06874	1	3.543945	3.548828
10.07676	4	3.544922	3.548828
10.08479	6	3.544922	3.548828
10.09281	8	3.538086	3.541992
10.10083	4	3.527344	3.53125
10.10885	8	3.517578	3.520508
10.11688	7	3.527344	3.53125
10.1249	3	3.538086	3.541016
10.13292	4	3.546875	3.549805
10.14095	2	3.551758	3.553711
10.14897	3	3.554688	3.556641
10.15699	3	3.555664	3.557617
10.16502	5	3.555664	3.557617
10.17304	5	3.552734	3.553711
10.18106	5	3.546875	3.548828
10.18909	2	3.541016	3.541992
10.19711	4	3.53418	3.536133
10.20513	6	3.527344	3.529297
10.21315	3	3.544922	3.546875
10.22118	2	3.561523	3.563477
10.2292	8	3.572266	3.575195
10.23722	2	3.580078	3.583984
10.24525	6	3.585938	3.59082
10.25327	4	3.587891	3.594727
10.26129	1	3.587891	3.597656
10.26932	4	3.588867	3.600586
10.27734	5	3.607422	3.62207
10.28536	3	3.625	3.644531
10.29338	2	3.634766	3.65918
10.30141	5	3.640625	3.670898
10.30943	9	3.646484	3.68457
10.31745	5	3.649414	3.697266
10.32548	4	3.649414	3.708984
10.3335	4	3.650391	3.72168
10.34152	9	3.660156	3.748047
10.34955	4	3.669922	3.776367
10.35757	6	3.674805	3.801758
10.36559	3	3.676758	3.828125
10.37362	4	3.676758	3.857422
10.38164	3	3.673828	3.886719
10.38966	4	3.667969	3.917969
10.39769	4	3.663086	3.954102
10.40571	4	3.673828	4.009766
10.41373	8	3.68457	4.070313
10.42175	4	3.69043	4.131836
10.42978	7	3.692383	4.192383
10.4378	6	3.691406	4.254883
10.44582	6	3.6875	4.317383
10.45385	7	3.682617	4.380859
10.46187	7	3.676758	4.445313
10.46989	5	3.693359	4.532227
10.47792	6	3.708008	4.617188
10.48594	11	3.722656	4.699219
10.49396	5	3.732422	4.771484
10.50198	4	3.738281	4.835938
10.51001	5	3.744141	4.892578
10.51803	3	3.748047	4.939453
10.52605	5	3.75293	4.976563
10.53408	6	3.759766	5.004883
10.5421	5	3.766602	5.022461
10.55012	5	3.774414	5.02832
10.55815	4	3.78125	5.021484
10.56617	4	3.785156	5.000977
10.57419	12	3.788086	4.966797
10.58222	7	3.789063	4.920898
10.59024	7	3.788086	4.864258
10.59826	8	3.786133	4.799805
10.60628	5	3.78125	4.725586
10.61431	4	3.774414	4.646484
10.62233	1	3.766602	4.563477
10.63035	2	3.777344	4.498047
10.63838	5	3.78418	4.428711
10.6464	7	3.787109	4.358398
10.65442	2	3.78418	4.285156
10.66245	3	3.77832	4.212891
10.67047	1	3.770508	4.143555
10.67849	5	3.761719	4.079102
10.68651	5	3.75293	4.020508
10.69454	6	3.765625	3.989258
10.70256	6	3.782227	3.96582
10.71058	4	3.796875	3.947266
10.71861	10	3.805664	3.926758
10.72663	0	3.811523	3.908203
10.73465	4	3.81543	3.892578
10.74268	8	3.818359	3.878906
10.7507	7	3.821289	3.868164
10.75872	3	3.833984	3.870117
10.76675	7	3.84668	3.874023
10.77477	7	3.857422	3.87793
10.78279	7	3.864258	3.879883
10.79082	7	3.870117	3.881836
10.79884	6	3.874023	3.882813
10.80686	3	3.876953	3.882813
10.81488	4	3.876953	3.881836
10.82291	6	3.875	3.878906
10.83093	5	3.873047	3.875977
10.83895	1	3.870117	3.873047
10.84698	3	3.868164	3.869141
10.855	6	3.865234	3.866211
10.86302	9	3.861328	3.863281
10.87105	5	3.858398	3.859375
10.87907	7	3.852539	3.853516
10.88709	4	3.845703	3.84668
10.89511	7	3.838867	3.839844
10.90314	7	3.825195	3.826172
10.91116	5	3.808594	3.80957
10.91918	7	3.791992	3.792969
10.92721	7	3.818359	3.819336
10.93523	3	3.842773	3.84375
10.94325	5	3.857422	3.858398
10.95128	4	3.867188	3.867188
10.9593	3	3.874023	3.874023
10.96732	8	3.878906	3.878906
10.97535	9	3.882813	3.882813
10.98337	11	3.886719	3.886719
10.99139	1	3.900391	3.901367
10.99941	2	3.915039	3.915039
11.00744	8	3.922852	3.922852
11.01546	4	3.926758	3.926758
11.02348	7	3.928711	3.928711
11.03151	1	3.930664	3.930664
11.03953	4	3.931641	3.931641
11.04755	5	3.935547	3.935547
11.05558	4	3.9375	3.938477
11.0636	6	3.93457	3.93457
11.07162	5	3.929688	3.929688
11.07965	5	3.923828	3.923828
11.08767	4	3.916992	3.916992
11.09569	5	3.904297	3.904297
11.10371	9	3.891602	3.891602
11.11174	6	3.888672	3.888672
11.11976	2	3.882813	3.883789
11.12778	7	3.864258	3.865234
11.13581	3	3.839844	3.84082
11.14383	3	3.814453	3.81543
11.15185	7	3.849609	3.850586
11.15988	2	3.882813	3.884766
11.1679	4	3.899414	3.901367
11.17592	0	3.90918	3.911133
11.18395	7	3.917969	3.920898
11.19197	7	3.917969	3.921875
11.19999	5	3.914063	3.917969
11.20801	2	3.90918	3.914063
11.21604	7	3.931641	3.9375
11.22406	4	3.953125	3.960938
11.23208	6	3.964844	3.972656
11.24011	6	3.970703	3.980469
11.24813	6	3.974609	3.984375
11.25615	11	3.976563	3.988281
11.26418	7	3.978516	3.991211
11.2722	5	3.983398	3.998047
11.28022	4	3.985352	4.000977
11.28825	4	3.981445	3.999023
11.29627	8	3.975586	3.993164
11.30429	2	3.96875	3.988281
11.31231	4	3.958008	3.978516
11.32034	4	3.941406	3.961914
11.32836	6	3.923828	3.945313
11.33638	5	3.924805	3.947266
11.34441	3	3.922852	3.945313
11.35243	4	3.900391	3.922852
11.36045	3	3.869141	3.890625
11.36848	6	3.836914	3.858398
11.3765	2	3.908203	3.929688
11.38452	6	3.972656	3.993164
11.39254	2	4.019531	4.039063
11.40057	4	4.057617	4.076172
11.40859	6	4.091797	4.109375
11.41661	7	4.117188	4.132813
11.42464	3	4.136719	4.151367
11.43266	4	4.157227	4.169922
11.44068	6	4.204102	4.21582
11.44871	3	4.249023	4.258789
11.45673	4	4.279297	4.289063
11.46475	6	4.303711	4.3125
11.47278	5	4.328125	4.335938
11.4808	6	4.373047	4.378906
11.48882	4	4.415039	4.420898
11.49685	5	4.447266	4.452148
11.50487	11	4.475586	4.479492
11.51289	4	4.50293	4.506836
11.52091	2	4.539063	4.541992
11.52894	4	4.572266	4.575195
11.53696	7	4.598633	4.600586
11.54498	9	4.621094	4.623047
11.55301	3	4.644531	4.646484
11.56103	9	4.683594	4.685547
11.56905	5	4.71875	4.720703
11.57708	4	4.745117	4.746094
11.5851	10	4.766602	4.767578
11.59312	5	4.788086	4.789063
11.60114	5	4.831055	4.832031
11.60917	8	4.87207	4.874023
11.61719	4	4.911133	4.912109
11.62521	6	4.943359	4.945313
11.63324	7	4.974609	4.975586
11.64126	4	5.001953	5.003906
11.64928	7	5.029297	5.030273
11.65731	13	5.056641	5.057617
11.66533	7	5.094727	5.095703
11.67335	9	5.130859	5.131836
11.68138	3	5.162109	5.163086
11.6894	4	5.19043	5.191406
11.69742	5	5.219727	5.220703
11.70544	8	5.251953	5.25293
11.71347	7	5.282227	5.283203
11.72149	5	5.3125	5.313477
11.72951	6	5.338867	5.338867
11.73754	7	5.363281	5.364258
11.74556	11	5.386719	5.387695
11.75358	4	5.410156	5.410156
11.76161	7	5.432617	5.433594
11.76963	6	5.458008	5.458008
11.77765	8	5.481445	5.481445
11.78568	7	5.5	5.500977
11.7937	4	5.517578	5.517578
11.80172	3	5.535156	5.535156
11.80974	4	5.563477	5.563477
11.81777	7	5.588867	5.588867
11.82579	10	5.611328	5.612305
11.83381	10	5.633789	5.633789
11.84184	9	5.65625	5.65625
11.84986	4	5.668945	5.668945
11.85788	5	5.677734	5.677734
11.86591	3	5.685547	5.685547
11.87393	10	5.728516	5.728516
11.88195	5	5.768555	5.768555
11.88998	9	5.795898	5.795898
11.898	10	5.817383	5.817383
11.90602	4	5.838867	5.838867
11.91404	6	5.862305	5.862305
11.92207	5	5.875977	5.876953
11.93009	7	5.890625	5.891602
11.93811	8	5.93457	5.936523
11.94614	6	5.978516	5.979492
11.95416	9	6.007813	6.009766
11.96218	7	6.029297	6.032227
11.97021	8	6.051758	6.054688
11.97823	11	6.070313	6.073242
11.98625	6	6.084961	6.088867
11.99428	6	6.099609	6.104492
12.0023	6	6.125	6.130859
12.01032	8	6.151367	6.158203
12.01834	6	6.175781	6.183594
12.02637	8	6.201172	6.209961
12.03439	5	6.210938	6.220703
12.04241	5	6.213867	6.225586
12.05044	8	6.21582	6.229492
12.05846	11	6.237305	6.251953
12.06648	6	6.253906	6.270508
12.07451	8	6.244141	6.262695
12.08253	8	6.222656	6.242188
12.09055	6	6.200195	6.222656
12.09857	5	6.300781	6.325195
12.1066	6	6.383789	6.410156
12.11462	3	6.450195	6.477539
12.12264	8	6.5	6.530273
12.13067	12	6.542969	6.575195
12.13869	7	6.577148	6.612305
12.14671	6	6.607422	6.645508
12.15474	6	6.638672	6.677734
12.16276	5	6.706055	6.749023
12.17078	3	6.770508	6.816406
12.17881	6	6.81543	6.864258
12.18683	10	6.852539	6.904297
12.19485	12	6.888672	6.943359
12.20288	14	6.952148	7.010742
12.2109	7	7.013672	7.076172
12.21892	3	7.061523	7.12793
12.22694	6	7.102539	7.171875
12.23497	13	7.142578	7.216797
12.24299	8	7.189453	7.266602
12.25101	7	7.234375	7.314453
12.25904	10	7.266602	7.350586
12.26706	14	7.293945	7.378906
12.27508	10	7.320313	7.408203
12.28311	9	7.376953	7.466797
12.29113	8	7.427734	7.517578
12.29915	9	7.458008	7.548828
12.30717	10	7.478516	7.569336
12.3152	7	7.499023	7.589844
12.32322	5	7.583984	7.673828
12.33124	7	7.662109	7.750977
12.33927	10	7.734375	7.821289
12.34729	6	7.792969	7.878906
12.35531	7	7.845703	7.929688
12.36334	5	7.888672	7.972656
12.37136	7	7.926758	8.011719
12.37938	10	7.96582	8.050781
12.38741	9	8.042969	8.131836
12.39543	11	8.117188	8.210938
12.40345	18	8.183594	8.28418
12.41148	8	8.243164	8.353516
12.4195	5	8.298828	8.422852
12.42752	9	8.349609	8.490234
12.43554	8	8.398438	8.560547
12.44357	8	8.443359	8.630859
12.45159	13	8.486328	8.705078
12.45961	10	8.529297	8.783203
12.46764	12	8.571289	8.866211
12.47566	13	8.613281	8.955078
12.48368	7	8.675781	9.069336
12.4917	12	8.732422	9.183594
12.49973	6	8.78125	9.293945
12.50775	7	8.820313	9.398438
12.51577	7	8.854492	9.501953
12.5238	7	8.879883	9.599609
12.53182	16	8.900391	9.693359
12.53984	11	8.920898	9.787109
12.54787	7	9.020508	9.959961
12.55589	16	9.108398	10.11816
12.56391	12	9.185547	10.2627
12.57194	12	9.246094	10.38672
12.57996	12	9.299805	10.49707
12.58798	9	9.34668	10.59473
12.59601	8	9.390625	10.68164
12.60403	13	9.43457	10.76074
12.61205	12	9.517578	10.87109
12.62007	6	9.595703	10.96875
12.6281	2	9.671875	11.05762
12.63612	9	9.737305	11.12695
12.64414	11	9.795898	11.18457
12.65217	9	9.852539	11.23438
12.66019	18	9.907227	11.27832
12.66821	16	9.962891	11.32031
12.67624	7	10.02344	11.36621
12.68426	12	10.08496	11.41211
12.69228	12	10.14355	11.45508
12.7003	10	10.19824	11.49609
12.70833	9	10.24609	11.53125
12.71635	9	10.28906	11.56348
12.72437	15	10.33008	11.59473
12.7324	9	10.36328	11.62109
12.74042	10	10.39355	11.64453
12.74844	11	10.41895	11.66504
12.75647	12	10.44238	11.68164
12.76449	9	10.46582	11.69824
12.77251	10	10.55078	11.77344
12.78054	16	10.66211	11.87207
12.78856	13	10.77246	11.96484
12.79658	7	10.87305	12.04492
12.80461	13	10.96875	12.11426
12.81263	13	11.06152	12.17578
12.82065	13	11.1543	12.23145
12.82867	6	11.24512	12.28027
12.8367	14	11.33594	12.32422
12.84472	11	11.4248	12.3623
12.85274	11	11.51367	12.39648
12.86077	21	11.60156	12.42773
12.86879	15	11.68652	12.4541
12.87681	18	11.77051	12.47754
12.88484	12	11.85059	12.49902
12.89286	15	11.92871	12.51855
12.90088	18	12.00684	12.53906
12.90891	9	12.0791	12.55762
12.91693	16	12.14941	12.57617
12.92495	12	12.2207	12.59961
12.93297	11	12.29102	12.62598
12.941	13	12.3584	12.65234
12.94902	13	12.42383	12.68262
12.95704	17	12.48438	12.71094
12.96507	25	12.54297	12.74219
12.97309	17	12.59863	12.77246
12.98111	7	12.65332	12.80566
12.98914	17	12.70703	12.8418
12.99716	17	12.80957	12.92871
13.00518	17	12.91016	13.01563
13.0132	14	13.00879	13.10254
13.02123	14	13.10645	13.19141
13.02925	12	13.20508	13.28223
13.03727	18	13.29883	13.37012
13.0453	20	13.39063	13.45605
13.05332	14	13.48242	13.54395
13.06134	17	13.57715	13.63672
13.06937	15	13.67188	13.73047
13.07739	7	13.76563	13.82324
13.08541	17	13.85938	13.91797
13.09344	12	13.95215	14.01367
13.10146	14	14.04492	14.11133
13.10948	16	14.13379	14.20801
13.11751	14	14.2207	14.30566
13.12553	16	14.30762	14.40527
13.13355	13	14.3916	14.50781
13.14157	19	14.47363	14.6123
13.1496	17	14.55566	14.7207
13.15762	17	14.63477	14.83301
13.16564	19	14.71289	14.95117
13.17367	25	14.79004	15.0752
13.18169	25	14.86719	15.20801
13.18971	18	14.94531	15.34961
13.19774	23	15.01953	15.49707
13.20576	14	15.0918	15.65137
13.21378	16	15.16406	15.81738
13.2218	15	15.26953	16.02441
13.22983	19	15.37305	16.24121
13.23785	13	15.47461	16.46582
13.24587	12	15.5752	16.69824
13.2539	11	15.6748	16.93848
13.26192	10	15.77344	17.18457
13.26994	16	15.87012	17.43555
13.27797	20	15.9668	17.68945
13.28599	25	16.06152	17.94434
13.29401	21	16.15625	18.19824
13.30204	26	16.25	18.44922
13.31006	14	16.34375	18.69531
13.31808	21	16.4375	18.93359
13.3261	17	16.53125	19.16309
13.33413	20	16.625	19.37793
13.34215	14	16.71777	19.57715
13.35017	18	16.80762	19.75781
13.3582	13	16.89746	19.91797
13.36622	17	16.98828	20.05762
13.37424	24	17.07715	20.17578
13.38227	29	17.16504	20.26953
13.39029	14	17.25195	20.34082
13.39831	18	17.33789	20.38867
13.40633	26	17.42383	20.41504
13.41436	30	17.50391	20.41602
13.42238	23	17.58105	20.39648
13.4304	13	17.6582	20.36035
13.43843	18	17.76855	20.34375
13.44645	25	17.87598	20.3125
13.45447	25	17.97461	20.2627
13.4625	18	18.06934	20.20313
13.47052	27	18.16406	20.14063
13.47854	18	18.26758	20.08496
13.48657	22	18.37109	20.0293
13.49459	23	18.47266	19.97656
13.50261	22	18.57422	19.92773
13.51064	20	18.67383	19.88281
13.51866	15	18.77344	19.8457
13.52668	27	18.87207	19.81641
13.5347	24	18.9707	19.79688
13.54273	25	19.06934	19.78711
13.55075	23	19.16992	19.78906
13.55877	16	19.26855	19.79883
13.5668	17	19.36719	19.81738
13.57482	25	19.46582	19.8457
13.58284	14	19.56348	19.88184
13.59087	25	19.66016	19.92578
13.59889	19	19.75684	19.97656
13.60691	20	19.85254	20.03223
13.61493	16	19.94824	20.09473
13.62296	25	20.04395	20.16211
13.63098	18	20.13965	20.23438
13.639	23	20.22949	20.30566
13.64703	27	20.31641	20.37598
13.65505	23	20.40332	20.45117
13.66307	24	20.51172	20.54883
13.6711	26	20.62109	20.64941
13.67912	15	20.72363	20.74512
13.68714	21	20.82227	20.83887
13.69517	26	20.9209	20.93359
13.70319	13	21.02734	21.03711
13.71121	19	21.13379	21.14063
13.71923	26	21.2373	21.24316
13.72726	17	21.34082	21.3457
13.73528	21	21.44434	21.44824
13.7433	18	21.55664	21.55957
13.75133	25	21.66895	21.67188
13.75935	25	21.77734	21.78125
13.76737	25	21.88477	21.88867
13.7754	21	21.99219	21.99707
13.78342	27	22.10645	22.11133
13.79144	20	22.21973	22.22754
13.79947	27	22.32813	22.33691
13.80749	20	22.43359	22.44531
13.81551	20	22.53906	22.55469
13.82353	28	22.64551	22.66602
13.83156	28	22.75	22.77637
13.83958	29	22.84668	22.87988
13.8476	21	22.93848	22.98242
13.85563	26	23.0293	23.08496
13.86365	23	23.11914	23.19043
13.87167	27	23.20898	23.29883
13.8797	18	23.34668	23.45996
13.88772	19	23.49805	23.63965
13.89574	29	23.64941	23.8252
13.90377	24	23.79785	24.01465
13.91179	22	23.93945	24.2041
13.91981	25	24.07715	24.39844
13.92783	31	24.21094	24.60059
13.93586	23	24.34473	24.81055
13.94388	14	24.47754	25.03223
13.9519	23	24.60742	25.26367
13.95993	32	24.73633	25.50684
13.96795	33	24.86523	25.76465
13.97597	33	25.00098	26.04199
13.984	35	25.13477	26.33203
13.99202	33	25.26953	26.63672
14.00004	28	25.40625	26.95703
14.00807	29	25.54102	27.28809
14.01609	32	25.67676	27.63086
14.02411	32	25.81348	27.98438
14.03213	35	25.94629	28.3418
14.04016	17	26.07715	28.70117
14.04818	31	26.20703	29.0625
14.0562	43	26.33496	29.4209
14.06423	41	26.46387	29.77441
14.07225	35	26.58984	30.11816
14.08027	24	26.71387	30.44824
14.0883	26	26.83887	30.76367
14.09632	44	26.96582	31.06152
14.10434	31	27.0918	31.33594
14.11236	32	27.21387	31.58203
14.12039	28	27.33496	31.79883
14.12841	27	27.45605	31.98633
14.13643	35	27.58398	32.14941
14.14446	26	27.71094	32.27832
14.15248	29	27.83496	32.37207
14.1605	26	27.95508	32.43066
14.16853	31	28.07422	32.45801
14.17655	37	28.18848	32.45117
14.18457	27	28.30078	32.41504
14.1926	25	28.41309	32.35645
14.20062	26	28.53613	32.28906
14.20864	26	28.66016	32.20508
14.21667	35	28.78223	32.10645
14.22469	43	28.90234	31.99609
14.23271	36	29.0166	31.87598
14.24073	32	29.12793	31.75098
14.24876	34	29.2373	31.62598
14.25678	48	29.33887	31.49707
14.2648	38	29.43555	31.37109
14.27283	26	29.5293	31.25293
14.28085	34	29.62109	31.14453
14.28887	27	29.71387	31.0498
14.2969	32	29.86133	31.02441
14.30492	35	30	31.00488
14.31294	36	30.13281	30.99512
14.32096	28	30.26465	30.99805
14.32899	34	30.39551	31.01563
14.33701	34	30.5332	31.05273
14.34503	35	30.66602	31.09863
14.35306	35	30.7998	31.15625
14.36108	36	30.93555	31.22852
14.3691	22	31.07227	31.31055
14.37713	27	31.20313	31.39551
14.38515	32	31.3291	31.48438
14.39317	31	31.4541	31.57715
14.4012	38	31.57813	31.67578
14.40922	39	31.70313	31.7793
14.41724	31	31.83105	31.89063
14.42526	42	31.95605	32.00293
14.43329	33	32.08008	32.11621
14.44131	31	32.19727	32.22461
14.44933	34	32.31055	32.33203
14.45736	21	32.42383	32.43945
14.46538	30	32.53418	32.54688
14.4734	35	32.64453	32.6543
14.48143	42	32.7334	32.74121
14.48945	29	32.81055	32.81836
14.49747	26	32.88379	32.89063
14.5055	45	32.9541	32.95996
14.51352	38	33.02441	33.03125
14.52154	34	33.21094	33.21875
14.52956	32	33.46191	33.4707
14.53759	25	33.71191	33.72266
14.54561	38	33.9375	33.9502
14.55363	38	34.15039	34.16602
14.56166	42	34.36426	34.38379
14.56968	37	34.58887	34.61133
14.5777	38	34.80176	34.8291
14.58573	33	35.01563	35.04785
14.59375	42	35.23242	35.27051
14.60177	41	35.44922	35.49414
14.6098	33	35.65137	35.7041
14.61782	49	35.84668	35.90723
14.62584	52	36.03613	36.10547
14.63386	53	36.22363	36.30273
14.64189	48	36.41113	36.50098
14.64991	36	36.60156	36.70215
14.65793	47	36.78906	36.90137
14.66596	44	36.96289	37.08691
14.67398	36	37.12988	37.26563
14.682	41	37.29688	37.44531
14.69003	34	37.48242	37.64453
14.69805	42	37.66797	37.84082
14.70607	54	37.83203	38.01758
14.7141	36	37.98633	38.18457
14.72212	39	38.13574	38.34473
14.73014	38	38.2832	38.50293
14.73816	30	38.43066	38.66113
14.74619	48	38.59082	38.83203
14.75421	41	38.85547	39.10547
14.76223	45	39.11914	39.37891
14.77026	31	39.35449	39.62207
14.77828	51	39.57422	39.85059
14.7863	49	39.79395	40.0791
14.79433	44	40.02344	40.31738
14.80235	37	40.23926	40.54199
14.81037	49	40.45605	40.76758
14.81839	56	40.68848	41.01074
14.82642	56	40.92285	41.25586
14.83444	46	41.13965	41.48535
14.84246	56	41.34961	41.70703
14.85049	54	41.55469	41.92578
14.85851	57	41.75781	42.14258
14.86653	57	41.96094	42.36133
14.87456	41	42.16504	42.58105
14.88258	50	42.36719	42.79883
14.8906	44	42.55566	43.00293
14.89863	52	42.7373	43.19824
14.90665	45	42.91797	43.39453
14.91467	47	43.11523	43.60352
14.9227	45	43.30859	43.80859
14.93072	54	43.48926	43.99805
14.93874	37	43.66309	44.17871
14.94676	50	43.83398	44.35352
14.95479	52	43.99316	44.51465
14.96281	35	44.14746	44.66699
14.97083	39	44.30078	44.81543
14.97886	51	44.57617	45.08301
14.98688	46	44.85156	45.34863
14.9949	46	45.0918	45.57617
15.00293	51	45.31543	45.78418
15.01095	48	45.53906	45.99121
15.01897	53	45.76563	46.19824
15.02699	47	45.97656	46.38965
15.03502	39	46.18848	46.58008
15.04304	58	46.44336	46.81348
15.05106	45	46.69727	47.0459
15.05909	49	46.93555	47.2627
15.06711	45	47.16504	47.47266
15.07513	59	47.38965	47.67773
15.08316	54	47.6123	47.88184
15.09118	36	47.83398	48.08594
15.0992	48	48.04883	48.28516
15.10723	50	48.26074	48.48242
15.11525	41	48.46191	48.6709
15.12327	46	48.65723	48.85547
15.13129	60	48.85352	49.04102
15.13932	47	49.06055	49.23926
15.14734	58	49.26172	49.43164
15.15536	54	49.45215	49.61523
15.16339	51	49.6377	49.79395
15.17141	61	49.82324	49.97363
15.17943	43	49.99512	50.13867
15.18746	42	50.15234	50.29102
15.19548	52	50.30957	50.44238
15.2035	58	50.60156	50.72949
15.21152	75	50.88867	51.01074
15.21955	52	51.14746	51.26465
15.22757	55	51.39258	51.50391
15.23559	69	51.63867	51.74316
15.24362	56	51.87109	51.96973
15.25164	59	52.09473	52.1875
15.25966	47	52.31934	52.40527
15.26769	62	52.58203	52.66211
15.27571	45	52.84375	52.91797
15.28373	52	53.08984	53.1582
15.29176	51	53.32813	53.38965
15.29978	56	53.56152	53.61914
15.3078	56	53.79395	53.8457
15.31583	50	54.02539	54.07324
15.32385	47	54.24902	54.29395
15.33187	68	54.46973	54.5127
15.33989	54	54.67773	54.71973
15.34792	60	54.87891	54.92188
15.35594	54	55.08105	55.12695
15.36396	70	55.30273	55.35449
15.37199	63	55.51758	55.57813
15.38001	63	55.71973	55.79297
15.38803	48	55.91602	56.00684
15.39606	62	56.11133	56.22656
15.40408	63	56.28418	56.43164
15.4121	58	56.44141	56.62988
15.42013	69	56.59863	56.84082
15.42815	54	56.92285	57.2334
15.43617	60	57.23535	57.63086
15.44419	70	57.51563	58.01758
15.45222	69	57.7793	58.41309
15.46024	57	58.04004	58.83496
15.46826	71	58.2832	59.27344
15.47629	65	58.51758	59.74512
15.48431	71	58.75293	60.2627
15.49233	62	59.03125	60.87598
15.50036	79	59.30859	61.54785
15.50838	64	59.56543	62.26758
15.5164	56	59.8125	63.05078
15.52442	73	60.05469	63.91016
15.53245	70	60.29297	64.85352
15.54047	65	60.53027	65.8916
15.54849	78	60.75879	67.02051
15.55652	76	60.98242	68.24902
15.56454	93	61.19238	69.57227
15.57256	83	61.39551	71
15.58059	84	61.59961	72.53809
15.58861	90	61.83789	74.21973
15.59663	68	62.06934	75.99902
15.60466	85	62.28125	77.8584
15.61268	70	62.48535	79.79785
15.6207	71	62.68848	81.81445
15.62873	77	62.8584	83.8623
15.63675	83	63.01172	85.94141
15.64477	88	63.16602	88.04883
15.65279	96	63.51855	90.36035
15.66082	84	63.85059	92.63672
15.66884	99	64.14746	94.83691
15.67686	93	64.42676	96.95215
15.68489	92	64.69629	98.9668
15.69291	108	64.94922	100.8457
15.70093	111	65.19238	102.5713
15.70896	95	65.43652	104.1299
15.71698	102	65.73047	105.5469
15.725	121	66.01758	106.749
15.73302	100	66.28906	107.707
15.74105	97	66.55078	108.417
15.74907	95	66.80273	108.8662
15.75709	120	67.04883	109.0566
15.76512	116	67.29199	108.9902
15.77314	101	67.53027	108.668
15.78116	120	67.7666	108.1016
15.78919	109	67.98535	107.291
15.79721	104	68.19727	106.2598
15.80523	102	68.4082	105.0381
15.81326	106	68.65723	103.6846
15.82128	106	68.89453	102.1787
15.8293	91	69.11426	100.54
15.83732	107	69.3252	98.80566
15.84535	98	69.53711	97.01465
15.85337	86	69.71484	95.15918
15.86139	82	69.87012	93.2793
15.86942	100	70.02539	91.4209
15.87744	85	70.3916	89.81738
15.88546	94	70.7373	88.25879
15.89349	90	71.0498	86.74902
15.90151	95	71.34473	85.31836
15.90953	82	71.63086	83.98535
15.91755	78	71.89746	82.74902
15.92558	72	72.15625	81.62305
15.9336	76	72.41406	80.62012
15.94162	85	72.71289	79.7793
15.94965	74	73.00781	79.05273
15.95767	89	73.28809	78.42676
15.96569	99	73.5625	77.90234
15.97372	88	73.82422	77.46875
15.98174	71	74.08105	77.12305
15.98976	66	74.33496	76.85938
15.99779	90	74.58691	76.67188
16.00581	74	74.83984	76.55371
16.01383	69	75.07617	76.47949
16.02185	89	75.30176	76.44727
16.02988	74	75.52734	76.46094
16.0379	80	75.77734	76.53809
16.04593	88	76.00879	76.62793
16.05395	89	76.23145	76.7373
16.06197	77	76.4502	76.86621
16.06999	72	76.66895	77.0127
16.07802	77	76.86719	77.15332
16.08604	73	77.03516	77.27637
16.09406	75	77.20313	77.40918
16.10209	81	77.57813	77.75586
16.11011	75	77.93262	78.08789
16.11813	86	78.24316	78.37988
16.12616	84	78.53125	78.65332
16.13418	79	78.82031	78.92969
16.1422	85	79.12988	79.22852
16.15022	86	79.41992	79.51074
16.15825	94	79.71191	79.79297
16.16627	80	80.00879	80.08301
16.17429	88	80.29883	80.36621
16.18232	83	80.58301	80.64453
16.19034	84	80.86621	80.9209
16.19836	85	81.1416	81.19043
16.20638	96	81.41309	81.45703
16.21441	86	81.68359	81.72266
16.22243	118	81.95215	81.9873
16.23046	92	82.22168	82.25195
16.23848	98	82.4707	82.49707
16.2465	88	82.70996	82.7334
16.25452	81	82.9502	82.96973
16.26255	82	83.19531	83.21289
16.27057	83	83.43164	83.44629
16.27859	83	83.65918	83.6709
16.28662	75	83.88184	83.89258
16.29464	84	84.10547	84.11328
16.30266	89	84.33691	84.34375
16.31069	77	84.5332	84.53906
16.31871	98	84.73047	84.73535
16.32673	86	85.10938	85.11328
16.33475	83	85.47559	85.47852
16.34278	81	85.79785	85.80078
16.3508	89	86.09961	86.10156
16.35882	95	86.40039	86.40234
16.36685	87	86.75	86.75195
16.37487	87	87.08008	87.08105
16.38289	93	87.39941	87.40039
16.39092	92	87.70215	87.70313
16.39894	99	87.99707	87.99707
16.40696	100	88.29199	88.29199
16.41499	101	88.58594	88.58594
16.42301	87	88.87305	88.87305
16.43103	94	89.16113	89.16113
16.43905	78	89.4668	89.4668
16.44708	95	89.76465	89.76465
16.4551	98	90.05859	90.05859
16.46312	97	90.34082	90.34082
16.47115	95	90.61914	90.61914
16.47917	96	90.89551	90.89551
16.48719	80	91.16797	91.16797
16.49522	103	91.43945	91.43945
16.50324	97	91.70508	91.70508
16.51126	89	91.9668	91.9668
16.51929	97	92.22852	92.22852
16.52731	104	92.50684	92.50684
16.53533	100	92.75977	92.75977
16.54335	110	93.01367	93.01367
16.55138	97	93.37305	93.37305
16.5594	97	93.72656	93.72656
16.56742	90	94.05273	94.05273
16.57545	98	94.36719	94.36719
16.58347	87	94.68164	94.68164
16.59149	112	95.02246	95.02246
16.59952	101	95.34863	95.34863
16.60754	111	95.66699	95.66699
16.61556	71	95.97266	95.97266
16.62358	99	96.27051	96.27051
16.63161	90	96.56934	96.56934
16.63963	94	96.87305	96.87305
16.64765	117	97.16504	97.16504
16.65568	117	97.45801	97.45801
16.6637	100	97.78223	97.78223
16.67172	85	98.09668	98.09668
16.67975	113	98.40625	98.40625
16.68777	107	98.70605	98.70605
16.69579	118	99.00293	99.00293
16.70382	99	99.29688	99.29688
16.71184	103	99.58984	99.58984
16.71986	106	99.88379	99.88379
16.72788	117	100.1797	100.1797
16.73591	114	100.4707	100.4707
16.74393	113	100.7627	100.7627
16.75196	90	101.0664	101.0664
16.75998	115	101.3555	101.3555
16.768	117	101.6455	101.6455
16.77602	127	101.9795	101.9795
16.78405	108	102.3076	102.3076
16.79207	104	102.6367	102.6367
16.80009	111	102.9658	102.9658
16.80812	121	103.2949	103.2949
16.81614	104	103.6211	103.6211
16.82416	108	103.9395	103.9395
16.83219	106	104.2539	104.2539
16.84021	117	104.5605	104.5605
16.84823	127	104.8623	104.8623
16.85625	94	105.165	105.165
16.86428	109	105.4736	105.4736
16.8723	112	105.7695	105.7695
16.88032	115	106.0654	106.0654
16.88835	114	106.3975	106.3975
16.89637	120	106.7285	106.7285
16.90439	114	107.0576	107.0576
16.91242	116	107.3789	107.3789
16.92044	117	107.6953	107.6953
16.92846	107	108.0098	108.0098
16.93649	111	108.3223	108.3223
16.94451	105	108.6318	108.6318
16.95253	106	108.9385	108.9385
16.96055	120	109.2451	109.2451
16.96858	108	109.5518	109.5518
16.9766	87	109.8584	109.8584
16.98462	115	110.1963	110.1963
16.99265	110	110.5322	110.5322
17.00067	121	110.8525	110.8525
17.00869	125	111.165	111.165
17.01672	115	111.4775	111.4775
17.02474	109	111.791	111.791
17.03276	113	112.0957	112.0957
17.04078	109	112.4014	112.4014
17.04881	132	112.7412	112.7412
17.05683	136	113.0811	113.0811
17.06485	120	113.4063	113.4063
17.07288	129	113.7246	113.7246
17.0809	119	114.0439	114.0439
17.08892	113	114.3564	114.3564
17.09695	102	114.665	114.665
17.10497	123	114.9736	114.9736
17.11299	129	115.2959	115.2959
17.12102	116	115.6172	115.6172
17.12904	118	115.9404	115.9404
17.13706	132	116.2627	116.2627
17.14508	130	116.5889	116.5889
17.15311	131	116.9082	116.9082
17.16113	115	117.2266	117.2266
17.16915	117	117.542	117.542
17.17718	114	117.8555	117.8555
17.1852	120	118.1631	118.1631
17.19322	111	118.4678	118.4678
17.20125	130	118.7725	118.7725
17.20927	128	119.085	119.085
17.21729	123	119.3857	119.3857
17.22532	124	119.6875	119.6885
17.23334	112	120.0049	120.0049
17.24136	128	120.3057	120.3057
17.24938	131	120.6016	120.6025
17.25741	105	120.8955	120.8965
17.26543	123	121.1895	121.1904
17.27345	134	121.457	121.459
17.28148	143	121.7051	121.708
17.2895	131	121.9541	121.958
17.29752	122	122.3555	122.3613
17.30555	122	122.7461	122.7529
17.31357	122	123.0898	123.0996
17.32159	126	123.4111	123.4238
17.32961	144	123.7324	123.75
17.33764	140	124.0303	124.0527
17.34566	126	124.3145	124.3447
17.35368	130	124.5986	124.6387
17.36171	152	124.9629	125.0146
17.36973	134	125.3281	125.3936
17.37775	123	125.6611	125.7461
17.38578	134	125.9795	126.0869
17.3938	127	126.2822	126.418
17.40182	143	126.5771	126.7471
17.40985	107	126.8721	127.084
17.41787	143	127.1865	127.4482
17.42589	142	127.4873	127.8096
17.43391	132	127.7676	128.1611
17.44194	114	128.0371	128.5146
17.44996	119	128.3066	128.8818
17.45798	143	128.6338	129.3232
17.46601	105	128.9268	129.7461
17.47403	155	129.2129	130.1807
17.48205	159	129.4961	130.6309
17.49008	148	129.7793	131.1016
17.4981	127	129.9971	131.5283
17.50612	137	130.1797	131.9395
17.51414	134	130.3623	132.3721
17.52217	154	130.8418	133.1211
17.53019	149	131.3018	133.8701
17.53822	145	131.667	134.542
17.54624	131	131.9844	135.1816
17.55426	129	132.3027	135.833
17.56228	164	132.6064	136.4795
17.57031	160	132.877	137.0967
17.57833	134	133.1475	137.7148
17.58635	147	133.5605	138.4717
17.59438	131	133.9658	139.2109
17.6024	154	134.3232	139.8877
17.61042	132	134.6563	140.5195
17.61845	146	134.9697	141.1064
17.62647	129	135.2734	141.6543
17.63449	137	135.5762	142.167
17.64252	137	135.8906	142.6523
17.65054	151	136.1855	143.0762
17.65856	146	136.4629	143.4385
17.66658	154	136.7314	143.7471
17.67461	146	137	144.0088
17.68263	150	137.333	144.2871
17.69065	124	137.624	144.4805
17.69868	145	137.9053	144.6211
17.7067	145	138.1826	144.7168
17.71472	136	138.459	144.7773
17.72275	143	138.6543	144.7236
17.73077	169	138.8027	144.5977
17.73879	149	138.9521	144.4502
17.74681	154	139.4912	144.6758
17.75484	133	139.9971	144.8574
17.76286	158	140.3906	144.9229
17.77088	130	140.7285	144.9326
17.77891	152	141.0664	144.9463
17.78693	155	141.3584	144.9229
17.79495	148	141.6162	144.8789
17.80298	142	141.874	144.8516
17.811	160	142.3252	145.0371
17.81902	150	142.7617	145.2285
17.82705	159	143.1445	145.3877
17.83507	146	143.5	145.543
17.84309	162	143.8291	145.6953
17.85111	145	144.1445	145.8564
17.85914	160	144.46	146.04
17.86716	153	144.7725	146.2412
17.87518	135	145.0625	146.4395
17.88321	172	145.3398	146.6416
17.89123	175	145.6104	146.8535
17.89925	157	145.8818	147.0791
17.90728	137	146.2266	147.3887
17.9153	150	146.5215	147.6572
17.92332	150	146.8008	147.918
17.93134	157	147.0732	148.1768
17.93937	155	147.3457	148.4375
17.94739	161	147.5225	148.6055
17.95541	155	147.6445	148.7168
17.96344	168	147.7656	148.8281
17.97146	179	148.3633	149.4111
17.97948	140	148.9141	149.9463
17.98751	176	149.3408	150.3525
17.99553	165	149.7061	150.6934
18.00355	139	150.0479	151.0078
18.01158	125	150.3242	151.251
18.0196	159	150.5674	151.458
18.02762	147	150.8096	151.6611
18.03564	138	151.3037	152.1123
18.04367	164	151.7725	152.5352
18.05169	135	152.1846	152.9004
18.05971	157	152.5625	153.2295
18.06774	140	152.9121	153.5303
18.07576	200	153.2432	153.8115
18.08378	180	153.5635	154.084
18.09181	151	153.8643	154.3359
18.09983	156	154.1533	154.5801
18.10785	158	154.4385	154.8213
18.11588	168	154.7217	155.0625
18.1239	158	155.0049	155.3057
18.13192	159	155.3682	155.6328
18.13994	155	155.6787	155.9102
18.14797	164	155.9619	156.1631
18.15599	148	156.2324	156.4053
18.16401	166	156.502	156.6504
18.17204	167	156.6563	156.7832
18.18006	141	156.7539	156.8604
18.18808	145	156.8506	156.9404
18.19611	151	157.5088	157.584
18.20413	161	158.1094	158.1719
18.21215	184	158.623	158.6748
18.22017	175	159.0703	159.1123
18.2282	157	159.4844	159.5186
18.23622	149	159.8525	159.8809
18.24425	156	160.1992	160.2217
18.25227	172	160.5449	160.5635
18.26029	175	161.041	161.0557
18.26831	166	161.5078	161.5195
18.27634	181	161.9443	161.9531
18.28436	157	162.3652	162.373
18.29238	176	162.7676	162.7744
18.30041	167	163.1611	163.166
18.30843	164	163.5508	163.5547
18.31645	200	163.9307	163.9346
18.32448	166	164.3066	164.3096
18.3325	182	164.6641	164.667
18.34052	187	165.0137	165.0166
18.34855	182	165.3633	165.3662
18.35657	188	165.7168	165.7188
18.36459	171	166.0557	166.0576
18.37261	169	166.373	166.375
18.38064	166	166.6797	166.6816
18.38866	154	166.9863	166.9883
18.39668	171	167.2842	167.2861
18.40471	163	167.5566	167.5596
18.41273	184	167.8311	167.834
18.42075	175	168.1191	168.123
18.42878	197	168.3916	168.3945
18.4368	186	168.5918	168.5947
18.44482	159	168.7549	168.7588
18.45284	151	168.9189	168.9238
18.46087	139	169.5898	169.5947
18.46889	181	170.21	170.2148
18.47691	186	170.8262	170.8311
18.48494	191	171.4199	171.4258
18.49296	178	172.0039	172.0088
18.50098	169	172.542	172.5479
18.50901	142	173.0586	173.0645
18.51703	194	173.5762	173.582
18.52505	171	174.1025	174.1094
18.53308	176	174.6299	174.6377
18.5411	192	175.126	175.1338
18.54912	195	175.6064	175.6143
18.55714	175	176.0771	176.0859
18.56517	207	176.5439	176.5527
18.57319	182	177.0107	177.0205
18.58121	156	177.5029	177.5127
18.58924	177	177.9814	177.9912
18.59726	173	178.4365	178.4473
18.60528	195	178.8818	178.8926
18.61331	183	179.3262	179.3379
18.62133	230	179.7666	179.7783
18.62935	184	180.1855	180.1982
18.63737	174	180.6045	180.6182
18.6454	187	181.0654	181.0801
18.65342	177	181.5176	181.5322
18.66144	201	181.9199	181.9355
18.66947	184	182.2979	182.3145
18.67749	194	182.6768	182.6934
18.68551	183	183.248	183.2656
18.69354	170	183.7939	183.8125
18.70156	200	184.2969	184.3164
18.70958	186	184.7783	184.7988
18.71761	181	185.2607	185.2813
18.72563	188	185.7715	185.7939
18.73365	209	186.2773	186.2998
18.74167	212	186.7803	186.8037
18.7497	197	187.2676	187.292
18.75772	197	187.7422	187.7676
18.76574	198	188.2109	188.2373
18.77377	209	188.668	188.6963
18.78179	174	189.1143	189.1426
18.78981	185	189.5537	189.583
18.79784	215	189.9766	190.0068
18.80586	187	190.3916	190.4238
18.81388	212	190.8027	190.8359
18.82191	213	191.2119	191.2461
18.82993	217	191.6221	191.6582
18.83795	202	192.0098	192.0469
18.84597	195	192.3721	192.4102
18.854	208	192.7354	192.7744
18.86202	213	193.3027	193.3428
18.87004	202	193.8711	193.9131
18.87807	196	194.4043	194.4473
18.88609	195	194.9141	194.958
18.89411	215	195.3926	195.4385
18.90214	219	195.8564	195.9033
18.91016	185	196.3203	196.3682
18.91818	192	196.8105	196.8604
18.9262	198	197.2988	197.3506
18.93423	205	197.7881	197.8408
18.94225	191	198.25	198.3037
18.95028	182	198.6973	198.7529
18.9583	224	199.1221	199.1787
18.96632	233	199.5342	199.5928
18.97434	221	199.9473	200.0068
18.98237	207	200.4658	200.5264
18.99039	232	200.9844	201.0469
18.99841	198	201.4854	201.5488
19.00644	222	201.9365	202.002
19.01446	209	202.3643	202.4307
19.02248	198	202.7588	202.8271
19.03051	207	203.1377	203.207
19.03853	194	203.5	203.5713
19.04655	220	203.8555	203.9277
19.05457	200	204.207	204.2813
19.0626	221	204.5234	204.5986
19.07062	187	204.8223	204.8984
19.07864	220	205.1221	205.1992
19.08667	201	206.0791	206.1582
19.09469	220	207.0225	207.1025
19.10271	199	207.9014	207.9834
19.11074	209	208.75	208.832
19.11876	210	209.5459	209.6299
19.12678	194	210.3164	210.4014
19.13481	218	211.0879	211.1748
19.14283	237	211.9346	212.0215
19.15085	214	212.7646	212.8525
19.15887	214	213.5889	213.6787
19.1669	199	214.3838	214.4746
19.17492	232	215.165	215.2559
19.18294	237	215.9082	216.001
19.19097	227	216.6338	216.7275
19.19899	215	217.3604	217.4551
19.20701	200	218.2227	218.3184
19.21504	237	219.084	219.1807
19.22306	210	219.9287	220.0254
19.23108	225	220.7549	220.8525
19.23911	248	221.5332	221.6309
19.24713	217	222.2881	222.3867
19.25515	228	223.0264	223.126
19.26317	245	223.7412	223.8408
19.2712	249	224.4434	224.543
19.27922	232	225.1191	225.2197
19.28724	224	225.7822	225.8828
19.29527	225	226.4463	226.5488
19.30329	243	227.3281	227.4307
19.31131	221	228.1719	228.2744
19.31934	244	228.9912	229.0947
19.32736	223	229.7988	229.9023
19.33538	250	230.5908	230.6943
19.3434	243	231.375	231.4785
19.35143	266	232.1553	232.2598
19.35945	239	232.9326	233.0371
19.36747	256	233.6943	233.7988
19.3755	259	234.4482	234.5537
19.38352	257	235.1982	235.3037
19.39154	228	235.9395	236.0449
19.39957	221	236.6768	236.7813
19.40759	252	237.375	237.4795
19.41561	241	238.0537	238.1592
19.42364	248	238.7236	238.8291
19.43166	239	239.3867	239.4941
19.43968	231	240.0459	240.1543
19.4477	238	240.6572	240.7666
19.45573	241	241.2451	241.3545
19.46375	257	241.833	241.9424
19.47177	267	242.9014	243.0127
19.4798	244	243.9727	244.085
19.48782	238	245.0459	245.1592
19.49584	258	246.1221	246.2363
19.50387	246	247.1377	247.2539
19.51189	254	248.0986	248.2158
19.51991	247	249.0605	249.1807
19.52794	231	250.4707	250.5928
19.53596	238	251.8486	251.9736
19.54398	241	253.1924	253.3213
19.552	255	254.5215	254.6533
19.56003	290	255.8545	255.9902
19.56805	272	257.1592	257.2998
19.57607	263	258.4512	258.5967
19.5841	268	259.7393	259.8896
19.59212	237	261.0264	261.1836
19.60014	250	262.3154	262.4795
19.60817	268	263.583	263.7549
19.61619	300	264.8418	265.0215
19.62421	275	266.0947	266.2842
19.63223	281	267.3457	267.5459
19.64026	273	268.5996	268.8115
19.64828	276	269.8828	270.1084
19.65631	290	271.1641	271.4033
19.66433	257	272.4258	272.6816
19.67235	264	273.6787	273.9521
19.68037	262	274.9355	275.2285
19.6884	268	276.2109	276.5244
19.69642	262	277.4746	277.8115
19.70444	296	278.7295	279.0918
19.71247	311	279.9814	280.3711
19.72049	293	281.2334	281.6533
19.72851	293	282.4521	282.9063
19.73654	304	283.6563	284.1475
19.74456	294	284.8633	285.3936
19.75258	297	286.2666	286.8398
19.7606	279	287.6465	288.2676
19.76863	278	289.0166	289.6885
19.77665	301	290.375	291.1025
19.78467	296	291.7295	292.5176
19.7927	275	293.085	293.9395
19.80072	311	294.4326	295.3574
19.80874	282	295.7773	296.7803
19.81677	316	297.1221	298.209
19.82479	283	298.458	299.6357
19.83281	286	299.792	301.0684
19.84084	325	301.1201	302.5029
19.84886	322	302.4473	303.9453
19.85688	306	303.7773	305.3984
19.8649	293	305.1279	306.8828
19.87293	329	306.4814	308.3809
19.88095	328	307.8232	309.8779
19.88897	314	309.1621	311.3838
19.897	285	310.501	312.9033
19.90502	318	311.833	314.4287
19.91304	280	313.1631	315.9668
19.92107	327	314.4951	317.5225
19.92909	326	315.8301	319.0977
19.93711	316	317.168	320.6934
19.94514	315	318.5059	322.3066
19.95316	311	319.8438	323.9414
19.96118	353	321.1855	325.5996
19.9692	326	322.5303	327.2832
19.97723	311	323.8711	328.9873
19.98525	340	325.208	330.7119
19.99327	328	326.5439	332.4619
20.0013	319	327.8828	334.2432
20.00932	333	329.2188	336.0508
20.01734	357	330.5439	337.8789
20.02537	350	331.8721	339.7432
20.03339	321	333.2051	341.6465
20.04141	327	334.54	343.5898
20.04943	328	335.8623	345.5586
20.05746	338	337.1797	347.5625
20.06548	362	338.4912	349.6035
20.0735	365	339.8008	351.6875
20.08153	365	341.1123	353.8223
20.08955	365	342.417	355.999
20.09757	358	343.7188	358.2256
20.1056	346	345.0059	360.4902
20.11362	326	346.2852	362.8066
20.12164	367	347.5674	365.1846
20.12967	375	348.8789	367.6543
20.13769	349	350.1865	370.1865
20.14571	373	351.4775	372.7695
20.15373	380	352.7588	375.4141
20.16176	372	354.0352	378.1289
20.16978	371	355.3018	380.9102
20.1778	433	356.5635	383.7686
20.18583	408	357.8135	386.6992
20.19385	438	359.0596	389.7119
20.20187	384	360.3037	392.8145
20.2099	410	361.5381	396
20.21792	438	362.7637	399.2764
20.22594	423	363.9766	402.6396
20.23396	400	365.1826	406.1016
20.24199	439	366.3799	409.6621
20.25001	395	367.5654	413.3232
20.25803	368	368.7471	417.0957
20.26606	417	369.9238	420.9824
20.27408	418	371.0957	424.9883
20.2821	454	372.2598	429.1133
20.29013	416	373.4189	433.3623
20.29815	436	374.5762	437.7451
20.30617	474	375.7236	442.2559
20.3142	434	376.8672	446.9043
20.32222	463	378.0059	451.6914
20.33024	496	379.1367	456.6211
20.33826	514	380.2637	461.6982
20.34629	439	381.3789	466.9199
20.35431	497	382.4834	472.2891
20.36234	449	383.583	477.8164
20.37036	511	384.666	483.4922
20.37838	489	385.7422	489.3291
20.3864	522	386.8076	495.3271
20.39443	541	387.8633	501.4893
20.40245	512	388.9092	507.8184
20.41047	551	389.9453	514.3174
20.4185	521	390.9727	520.9883
20.42652	511	391.9951	527.8398
20.43454	524	393.0049	534.8613
20.44257	552	394.0029	542.0605
20.45059	577	394.9814	549.4277
20.45861	583	395.9492	556.9756
20.46663	569	396.9023	564.6982
20.47466	547	397.8447	572.6025
20.48268	614	398.7764	580.6875
20.4907	639	399.7012	588.959
20.49873	653	400.6191	597.415
20.50675	658	401.5234	606.0488
20.51477	661	402.4219	614.8682
20.5228	651	403.3154	623.8711
20.53082	670	404.1973	633.0508
20.53884	645	405.0732	642.4111
20.54687	666	405.9395	651.9453
20.55489	698	406.8008	661.6563
20.56291	683	407.6533	671.5361
20.57093	698	408.4941	681.5791
20.57896	758	409.3203	691.7783
20.58698	717	410.1396	702.1387
20.595	711	410.9385	712.6396
20.60303	794	411.7266	723.2871
20.61105	783	412.498	734.0684
20.61907	746	413.2598	744.9854
20.6271	711	414.0059	756.0273
20.63512	789	414.7422	767.1914
20.64314	775	415.4668	778.4688
20.65117	868	416.1846	789.8574
20.65919	857	416.8857	801.3369
20.66721	843	417.5752	812.9072
20.67523	851	418.2393	824.5449
20.68326	802	418.8906	836.252
20.69128	863	419.5234	848.0127
20.6993	832	420.1436	859.8262
20.70733	887	420.748	871.6758
20.71535	914	421.3447	883.5596
20.72337	933	421.9287	895.4619
20.7314	893	422.5	907.3721
20.73942	908	423.0654	919.2832
20.74744	918	423.6191	931.1797
20.75546	880	424.1631	943.0498
20.76349	882	424.7021	954.8857
20.77151	958	425.2207	966.6602
20.77953	924	425.7305	978.3711
20.78756	956	426.2334	990.0078
20.79558	985	426.7285	1001.558
20.8036	984	427.208	1012.996
20.81163	987	427.6777	1024.317
20.81965	996	428.127	1035.496
20.82767	1021	428.5625	1046.526
20.8357	964	428.9775	1057.389
20.84372	1095	429.3818	1068.078
20.85174	1071	429.7695	1078.574
20.85976	1059	430.1484	1088.872
20.86779	1110	430.5146	1098.955
20.87581	1034	430.8711	1108.811
20.88383	1062	431.2129	1118.423
20.89186	1131	431.5439	1127.782
20.89988	1115	431.8457	1136.856
20.9079	1095	432.1328	1145.648
20.91593	1095	432.3994	1154.14
20.92395	1134	432.6523	1162.325
20.93197	1084	432.8887	1170.189
20.93999	1125	433.1143	1177.729
20.94802	1158	433.3242	1184.927
20.95604	1217	433.5234	1191.777
20.96406	1172	433.7148	1198.273
20.97209	1175	433.8916	1204.398
20.98011	1217	434.0605	1210.15
20.98813	1166	434.2188	1215.519
20.99616	1157	434.3574	1220.484
21.00418	1201	434.4863	1225.051
21.0122	1191	434.6064	1229.213
21.02023	1250	434.7227	1232.969
21.02825	1225	434.8232	1236.301
21.03627	1226	434.916	1239.211
21.04429	1259	434.9893	1241.684
21.05232	1275	435.0439	1243.717
21.06034	1200	435.082	1245.308
21.06837	1228	435.1104	1246.462
21.07639	1229	435.1221	1247.171
21.08441	1218	435.126	1247.44
21.09243	1234	435.1172	1247.268
21.10046	1273	435.0957	1246.652
21.10848	1277	435.0674	1245.601
21.1165	1265	435.0264	1244.107
21.12453	1292	434.959	1242.163
21.13255	1312	434.8789	1239.783
21.14057	1213	434.7754	1236.961
21.1486	1288	434.6563	1233.708
21.15662	1284	434.5205	1230.029
21.16464	1286	434.375	1225.936
21.17266	1190	434.2119	1221.427
21.18069	1155	434.04	1216.519
21.18871	1234	433.8584	1211.216
21.19673	1161	433.6641	1205.524
21.20476	1232	433.4629	1199.459
21.21278	1151	433.2441	1193.017
21.2208	1155	433.0127	1186.213
21.22883	1175	432.7754	1179.063
21.23685	1224	432.5234	1171.57
21.24487	1263	432.2646	1163.752
21.2529	1211	431.9932	1155.614
21.26092	1159	431.7148	1147.175
21.26894	1195	431.4219	1138.438
21.27696	1147	431.1133	1129.414
21.28499	1141	430.7891	1120.115
21.29301	1124	430.4521	1110.558
21.30103	1144	430.1035	1100.755
21.30906	1143	429.7471	1090.726
21.31708	1132	429.3828	1080.481
21.3251	1103	429	1070.026
21.33313	1101	428.6084	1059.383
21.34115	1080	428.21	1048.566
21.34917	1092	427.8066	1037.594
21.35719	1076	427.3877	1026.466
21.36522	1056	426.9482	1015.194
21.37324	1032	426.4971	1003.798
21.38126	1041	426.0283	992.2871
21.38929	997	425.5469	980.6807
21.39731	998	425.0527	968.9902
21.40533	972	424.5518	957.2354
21.41336	948	424.04	945.4248
21.42138	1014	423.5146	933.5693
21.4294	956	422.9824	921.6875
21.43743	933	422.4375	909.7861
21.44545	923	421.8799	897.877
21.45347	921	421.3164	885.9814
21.46149	896	420.7354	874.0947
21.46952	815	420.1445	862.2393
21.47754	861	419.5488	850.4287
21.48556	809	418.9434	838.6699
21.49359	831	418.333	826.9785
21.50161	850	417.7119	815.3574
21.50963	746	417.0801	803.8174
21.51766	801	416.4346	792.3643
21.52568	834	415.7725	781.0049
21.5337	786	415.1035	769.7559
21.54173	785	414.4258	758.6279
21.54975	743	413.7412	747.627
21.55777	695	413.0527	736.7676
21.56579	658	412.3496	726.0469
21.57382	736	411.6396	715.4795
21.58184	733	410.9268	705.0801
21.58986	738	410.2129	694.8574
21.59789	687	409.4922	684.8193
21.60591	663	408.748	674.9551
21.61393	618	407.9922	665.29
21.62196	669	407.2266	655.8408
21.62998	620	406.4521	646.6182
21.638	574	405.6729	637.6426
21.64602	577	404.875	628.9199
21.65405	575	404.0674	620.4766
21.66207	550	403.2617	612.3467
21.67009	617	402.4727	604.5713
21.67812	574	401.6689	597.1484
21.68614	534	400.8457	590.1016
21.69416	570	400.0107	583.4766
21.70219	537	399.166	577.3125
21.71021	542	398.3164	571.6563
21.71823	518	397.4639	566.5576
21.72626	538	396.5879	562.0449
21.73428	538	395.7021	558.1826
21.7423	533	394.8164	555.0361
21.75032	514	393.958	552.6875
21.75835	524	393.0928	551.1631
21.76637	528	392.2041	550.5
21.77439	509	391.3037	550.7666
21.78242	537	390.3984	552.0234
21.79044	515	389.4805	554.3115
21.79846	498	388.5576	557.6816
21.80649	539	387.623	562.1631
21.81451	544	386.6816	567.791
21.82253	580	385.7422	574.5908
21.83055	584	384.8154	582.5791
21.83858	521	383.875	591.7275
21.8466	580	382.9238	602.0195
21.85463	589	381.9688	613.4297
21.86265	625	381.0127	625.9209
21.87067	657	380.0391	639.417
21.87869	610	379.0576	653.8604
21.88672	650	378.0693	669.1719
21.89474	681	377.0791	685.2676
21.90276	714	376.0898	702.0566
21.91079	715	375.1152	719.4502
21.91881	702	374.1406	737.3301
21.92683	780	373.1279	755.5557
21.93486	754	372.0977	774.042
21.94288	821	371.0596	792.7012
21.9509	793	370.0176	811.4443
21.95893	838	368.9775	830.1895
21.96695	839	367.915	848.834
21.97497	848	366.835	867.3086
21.98299	908	365.7559	885.5693
21.99102	893	364.7539	903.6318
21.99904	920	363.7393	921.3525
22.00706	948	362.6582	938.625
22.01509	935	361.5449	955.4307
22.02311	938	360.4336	971.7471
22.03113	979	359.4922	987.6797
22.03916	1010	358.5137	1002.953
22.04718	1002	357.4834	1017.471
22.0552	1075	356.4287	1031.165
22.06322	1087	355.375	1043.955
22.07125	1079	354.3164	1055.711
22.07927	1141	353.2148	1066.261
22.08729	1119	352.1152	1075.5
22.09532	1110	351.1396	1083.396
22.10334	1061	350.1582	1089.654
22.11136	1118	349.1055	1094.047
22.11939	1135	348.0186	1096.449
22.12741	1144	346.9336	1096.745
22.13543	1101	345.9102	1094.857
22.14346	1042	344.8799	1090.6
22.15148	1032	343.8145	1083.852
22.1595	1112	342.7314	1074.569
22.16752	1076	341.6309	1062.725
22.17555	1053	340.5225	1048.336
22.18357	1047	339.416	1031.462
22.19159	971	338.2969	1012.178
22.19962	998	337.1465	990.5908
22.20764	988	335.998	966.8994
22.21566	889	334.8984	941.3496
22.22369	933	333.7998	914.1211
22.23171	890	332.6406	885.4092
22.23973	844	331.4473	855.5098
22.24776	834	330.2559	824.7461
22.25578	757	329.3369	793.6807
22.2638	784	328.3896	762.3057
22.27182	739	327.3506	730.8438
22.27985	706	326.2676	699.6143
22.28787	710	325.1865	668.9189
22.29589	652	324.2344	639.1191
22.30392	555	323.2607	610.2725
22.31194	573	322.2402	582.5332
22.31996	568	321.1973	556.0771
22.32799	522	320.1572	531.0459
22.33601	487	319.1338	507.543
22.34403	474	318.0986	485.5996
22.35205	470	317.0625	465.2539
22.36008	452	316.0107	446.5
22.3681	409	314.9541	429.3271
22.37613	414	313.8994	413.7021
22.38415	386	312.8545	399.5781
22.39217	346	311.8008	386.8652
22.40019	332	310.7441	375.4893
22.40822	343	309.6768	365.3506
22.41624	333	308.6035	356.3613
22.42426	310	307.5322	348.4336
22.43229	307	306.4736	341.4795
22.44031	301	305.4023	335.3799
22.44833	325	304.333	330.0566
22.45635	295	303.2646	325.4209
22.46438	299	302.1953	321.3896
22.4724	316	301.0771	317.8389
22.48042	315	299.9355	314.7236
22.48845	300	298.7949	312.0068
22.49647	307	297.9063	309.8818
22.50449	302	297.0137	308.0439
22.51252	308	296.0791	306.4121
22.52054	315	295.125	304.9697
22.52856	299	294.1162	303.6484
22.53658	297	293.0801	302.4492
22.54461	290	292.0469	301.376
22.55263	286	291.3145	300.7109
22.56066	296	290.584	300.1357
22.56868	256	290.042	299.8252
22.5767	257	289.501	299.5791
22.58472	315	288.96	299.3896
22.59275	284	288.4199	299.249
22.60077	295	288.1934	299.4648
22.60879	272	287.9648	299.7168
22.61682	330	287.6465	299.9141
22.62484	299	287.2842	300.1006
22.63286	266	286.9219	300.3184
22.64089	283	286.6191	300.626
22.64891	324	286.3164	300.9619
22.65693	321	286.0195	301.332
22.66496	265	285.6982	301.7051
22.67298	312	285.3525	302.083
22.681	286	284.9922	302.4736
22.68902	277	284.624	302.8848
22.69705	285	284.2314	303.3008
22.70507	331	283.8262	303.7324
22.71309	290	283.4199	304.1924
22.72112	326	283.0615	304.7314
22.72914	288	282.6943	305.293
22.73716	298	282.2842	305.8418
22.74519	305	281.8525	306.3994
22.75321	338	281.4209	306.9902
22.76123	293	281.0625	307.6865
22.76925	329	280.6904	308.4014
22.77728	302	280.2744	309.1064
22.7853	320	279.8379	309.8242
22.79332	293	279.4014	310.5762
22.80135	303	279.0137	311.4111
22.80937	296	278.6016	312.2578
22.81739	325	278.1895	313.1387
22.82542	295	277.7891	314.0684
22.83344	299	277.3896	315.0332
22.84146	319	276.9512	315.9971
22.84949	369	276.4941	316.9785
22.85751	365	276.0371	317.9941
22.86553	307	275.6094	319.0791
22.87355	330	275.1563	320.1748
22.88158	326	274.7031	321.3096
22.8896	335	274.2783	322.5088
22.89762	345	273.8535	323.7451
22.90565	331	273.3916	324.9824
22.91367	351	272.9121	326.2393
22.92169	344	272.4326	327.5332
22.92972	316	271.96	328.8711
22.93774	320	271.4873	330.2461
22.94576	330	271.0186	331.6621
22.95378	328	270.5449	333.1094
22.96181	334	270.0635	334.584
22.96983	329	269.5742	336.0879
22.97785	337	269.0811	337.623
22.98588	349	268.5791	339.1836
22.9939	373	268.0723	340.7744
23.00192	358	267.5635	342.3965
23.00995	357	267.0537	344.0498
23.01797	399	266.5439	345.7363
23.02599	350	266.0234	347.4434
23.03402	347	265.4971	349.1758
23.04204	333	264.9717	350.9375
23.05006	382	264.4346	352.7168
23.05808	386	263.8916	354.5176
23.06611	376	263.3398	356.3369
23.07413	396	262.7842	358.1777
23.08216	368	262.2285	360.043
23.09018	365	261.6709	361.9287
23.0982	352	261.1035	363.8271
23.10622	386	260.5371	365.7461
23.11425	383	259.9678	367.6816
23.12227	354	259.3984	369.6328
23.13029	362	258.8096	371.583
23.13832	379	258.2139	373.5391
23.14634	388	257.6172	375.5078
23.15436	382	257.0303	377.4961
23.16239	410	256.4395	379.4912
23.17041	392	255.8408	381.4854
23.17843	423	255.2383	383.4814
23.18645	381	254.6328	385.4775
23.19448	388	254.0244	387.4746
23.2025	404	253.4102	389.4639
23.21052	412	252.792	391.4492
23.21855	414	252.168	393.4229
23.22657	376	251.5391	395.3877
23.23459	409	250.9053	397.3379
23.24261	390	250.2695	399.2764
23.25064	404	249.6299	401.2002
23.25866	385	248.9893	403.1074
23.26669	395	248.3398	404.9902
23.27471	410	247.6846	406.8477
23.28273	405	247.0244	408.6797
23.29075	400	246.3604	410.4863
23.29878	423	245.6865	412.2559
23.3068	409	245.0068	413.9941
23.31482	436	244.3213	415.6963
23.32285	453	243.6328	417.3652
23.33087	390	242.9414	418.9971
23.33889	390	242.2471	420.5889
23.34692	425	241.5488	422.1406
23.35494	462	240.8457	423.6455
23.36296	437	240.1367	425.1035
23.37099	417	239.4248	426.5146
23.37901	412	238.71	427.877
23.38703	392	237.9932	429.1885
23.39505	432	237.2744	430.4482
23.40308	391	236.5518	431.6514
23.4111	459	235.8252	432.7979
23.41912	401	235.0977	433.8867
23.42715	420	234.3633	434.9111
23.43517	445	233.625	435.873
23.44319	430	232.8828	436.7695
23.45122	444	232.1377	437.6016
23.45924	407	231.3906	438.3662
23.46726	424	230.6396	439.0625
23.47528	404	229.8838	439.6865
23.48331	418	229.125	440.2393
23.49133	444	228.3574	440.7139
23.49935	453	227.5869	441.1143
23.50738	439	226.8105	441.4375
23.5154	381	226.0342	441.6865
23.52342	424	225.251	441.8564
23.53145	455	224.4668	441.9492
23.53947	438	223.6729	441.958
23.54749	404	222.876	441.8867
23.55552	424	222.0752	441.7344
23.56354	436	221.2725	441.5039
23.57156	420	220.4668	441.1904
23.57958	438	219.6602	440.7988
23.58761	423	218.8477	440.3223
23.59563	434	218.0332	439.7656
23.60365	422	217.2168	439.127
23.61168	443	216.3994	438.4092
23.6197	440	215.5791	437.6094
23.62772	453	214.7568	436.7285
23.63575	437	213.9307	435.7656
23.64377	463	213.1035	434.7236
23.65179	416	212.2705	433.5977
23.65981	419	211.4355	432.3926
23.66784	437	210.5967	431.1064
23.67586	404	209.7549	429.7412
23.68388	419	208.9082	428.2959
23.69191	405	208.0605	426.7754
23.69993	440	207.208	425.1748
23.70795	394	206.3525	423.5
23.71598	403	205.4922	421.748
23.724	450	204.6299	419.9238
23.73202	406	203.7627	418.0244
23.74005	371	202.8926	416.0537
23.74807	421	202.0195	414.0146
23.75609	427	201.1445	411.9063
23.76411	379	200.2637	409.7285
23.77214	407	199.3809	407.4863
23.78016	392	198.4961	405.1807
23.78819	438	197.6104	402.8145
23.79621	421	196.7246	400.3896
23.80423	360	195.8359	397.9072
23.81225	390	194.9463	395.3672
23.82028	415	194.0547	392.7734
23.8283	450	193.1611	390.126
23.83632	407	192.2646	387.4268
23.84435	374	191.3682	384.6807
23.85237	348	190.4717	381.8887
23.86039	361	189.5713	379.0479
23.86842	379	188.6689	376.165
23.87644	362	187.7666	373.2412
23.88446	376	186.8604	370.2754
23.89248	405	185.9541	367.2744
23.90051	368	185.043	364.2344
23.90853	380	184.1299	361.1602
23.91655	394	183.2178	358.0566
23.92458	368	182.2988	354.918
23.9326	384	181.377	351.751
23.94062	393	180.4551	348.5586
23.94865	343	179.5313	345.3418
23.95667	387	178.6055	342.1025
23.96469	368	177.6748	338.8408
23.97272	356	176.7432	335.5615
23.98074	326	175.8115	332.2656
23.98876	350	174.876	328.9551
23.99678	332	173.9414	325.6328
24.00481	330	173.0049	322.3008
24.01283	330	172.0693	318.9609
24.02085	343	171.1348	315.6162
24.02888	330	170.1973	312.2646
24.0369	321	169.2598	308.9111
24.04492	317	168.3213	305.5557
24.05295	288	167.3828	302.2012
24.06097	297	166.4424	298.8477
24.06899	325	165.502	295.499
24.07701	320	164.5625	292.1563
24.08504	322	163.6221	288.8184
24.09306	297	162.6807	285.4902
24.10108	317	161.7402	282.1729
24.10911	308	160.7949	278.8613
24.11713	281	159.8477	275.5605
24.12515	280	158.9004	272.2744
24.13318	279	157.9541	269.0039
24.1412	270	157.0098	265.752
24.14922	291	156.0615	262.5137
24.15725	269	155.1113	259.293
24.16527	261	154.1611	256.0908
24.17329	266	153.21	252.9082
24.18131	264	152.2588	249.748
24.18934	238	151.3047	246.6064
24.19736	264	150.3496	243.4873
24.20538	242	149.3955	240.3936
24.21341	204	148.4404	237.3242
24.22143	219	147.4873	234.2813
24.22945	271	146.5322	231.2627
24.23748	203	145.5781	228.2725
24.2455	240	144.6279	225.3125
24.25352	220	143.6777	222.3799
24.26155	225	142.7275	219.4766
24.26957	202	141.7783	216.6016
24.27759	205	140.8301	213.7578
24.28561	237	139.8809	210.9424
24.29364	221	138.9336	208.1563
24.30166	189	137.9873	205.4033
24.30968	204	137.041	202.6787
24.31771	205	136.0947	199.9854
24.32573	182	135.1504	197.3232
24.33375	210	134.2012	194.6885
24.34178	183	133.252	192.083
24.3498	166	132.3047	189.5098
24.35782	183	131.3594	186.9697
24.36584	157	130.416	184.4629
24.37387	182	129.4727	181.9854
24.38189	172	128.5303	179.54
24.38991	155	127.5898	177.127
24.39794	142	126.6465	174.7422
24.40596	180	125.7031	172.3877
24.41398	166	124.7607	170.0645
24.42201	149	123.8203	167.7734
24.43003	139	122.8809	165.5146
24.43805	156	121.9424	163.2861
24.44608	138	121.0059	161.0898
24.4541	161	120.0703	158.9248
24.46212	139	119.1357	156.793
24.47014	119	118.2051	154.6953
24.47817	150	117.2744	152.6289
24.48619	132	116.3457	150.5967
24.49422	146	115.418	148.5996
24.50224	137	114.4941	146.6396
24.51026	115	113.5703	144.7158
24.51828	138	112.6494	142.8311
24.52631	132	111.7305	140.9902
24.53433	124	110.8115	139.1904
24.54235	128	109.8945	137.4385
24.55037	133	108.9805	135.7393
24.5584	150	108.0635	134.0938
24.56642	116	107.1484	132.5088
24.57445	133	106.2354	130.9941
24.58247	107	105.3262	129.5576
24.59049	98	104.4199	128.209
24.59851	120	103.5137	126.9551
24.60654	134	102.6113	125.8096
24.61456	126	101.7109	124.7861
24.62258	117	100.8125	123.8965
24.63061	123	99.91699	123.1582
24.63863	104	99.02148	122.5859
24.64665	108	98.12891	122.1992
24.65468	122	97.23828	122.0176
24.6627	110	96.34961	122.0605
24.67072	109	95.46387	122.3486
24.67875	124	94.58008	122.9023
24.68677	135	93.69922	123.7432
24.69479	110	92.82227	124.8916
24.70281	131	91.94727	126.3662
24.71084	115	91.07422	128.1826
24.71886	132	90.20508	130.3574
24.72688	129	89.33887	132.9004
24.73491	131	88.47363	135.8184
24.74293	119	87.61133	139.1162
24.75095	154	86.75098	142.792
24.75898	154	85.89258	146.8379
24.767	141	85.03809	151.2412
24.77502	165	84.18457	155.9805
24.78304	152	83.33496	161.0283
24.79107	175	82.48828	166.3516
24.79909	167	81.6416	171.9053
24.80711	184	80.79785	177.6426
24.81514	173	79.95703	183.5068
24.82316	186	79.11914	189.4375
24.83118	196	78.28613	195.3682
24.83921	195	77.45605	201.2246
24.84723	214	76.62891	206.9316
24.85525	198	75.80664	212.4131
24.86328	252	74.98633	217.5898
24.8713	249	74.16992	222.3838
24.87932	234	73.35352	226.7188
24.88734	247	72.54102	230.5244
24.89537	237	71.7334	233.7383
24.90339	223	70.93652	236.3076
24.91141	223	70.14355	238.1729
24.91944	209	69.35254	239.293
24.92746	198	68.5625	239.6377
24.93548	233	67.77637	239.1875
24.94351	220	66.99316	237.9355
24.95153	238	66.21387	235.8877
24.95955	245	65.43555	233.0547
24.96758	205	64.65918	229.4658
24.9756	213	63.8877	225.1611
24.98362	225	63.11816	220.1855
24.99164	209	62.35254	214.5977
24.99967	214	61.58984	208.46
25.00769	195	60.83008	201.8408
25.01571	189	60.07422	194.8154
25.02374	190	59.32031	187.46
25.03176	187	58.57031	179.8525
25.03978	181	57.82422	172.0723
25.04781	164	57.08203	164.1953
25.05583	163	56.34473	156.2959
25.06385	172	55.61816	148.4473
25.07187	123	54.89355	140.707
25.0799	131	54.17383	133.1328
25.08792	146	53.45313	125.7744
25.09594	105	52.73535	118.6768
25.10397	114	52.02051	111.8809
25.11199	88	51.31055	105.415
25.12001	103	50.60547	99.30566
25.12804	115	49.90918	93.57227
25.13606	105	49.21777	88.22168
25.14408	92	48.5293	83.25684
25.15211	109	47.8418	78.67676
25.16013	106	47.15527	74.47656
25.16815	92	46.47168	70.64844
25.17617	82	45.79102	67.18262
25.1842	67	45.11133	64.06348
25.19222	66	44.43555	61.27734
25.20024	52	43.7627	58.80762
25.20827	82	43.09473	56.6377
25.21629	84	42.43164	54.75
25.22431	62	41.7832	53.13672
25.23234	67	41.13965	51.76855
25.24036	58	40.50195	50.62988
25.24838	50	39.87109	49.70703
25.2564	73	39.24121	48.97559
25.26443	72	38.61719	48.42383
25.27245	59	38.00098	48.04102
25.28048	50	37.38672	47.80469
25.2885	56	36.7666	47.69531
25.29652	40	36.14746	47.70313
25.30454	70	35.53223	47.81836
25.31257	73	34.92285	48.0293
25.32059	54	34.30859	48.31055
25.32861	40	33.7002	48.66016
25.33664	61	33.10645	49.07031
25.34466	62	32.51855	49.52051
25.35268	74	31.91992	49.97852
25.36071	59	31.3125	50.42969
25.36873	63	30.70996	50.87695
25.37675	64	30.19629	51.38672
25.38478	68	29.67871	51.85156
25.3928	54	29.14258	52.24414
25.40082	54	28.60059	52.5625
25.40884	62	28.0625	52.80566
25.41687	68	27.54004	52.97266
25.42489	54	27.0166	53.03613
25.43291	50	26.49805	52.99316
25.44094	65	25.9834	52.83691
25.44896	58	25.47363	52.56055
25.45698	63	24.96484	52.1582
25.46501	55	24.45996	51.62891
25.47303	51	23.95313	50.96875
25.48105	50	23.44727	50.18262
25.48907	46	22.94824	49.27832
25.4971	53	22.46484	48.27344
25.50512	50	21.98633	47.16016
25.51314	53	21.49316	45.93164
25.52117	50	20.99609	44.60742
25.52919	33	20.50586	43.20703
25.53721	44	20.04297	41.76465
25.54524	40	19.57617	40.26074
25.55326	41	19.10352	38.70703
25.56128	40	18.63281	37.12109
25.56931	36	18.16797	35.52148
25.57733	24	17.69336	33.90332
25.58535	29	17.20703	32.27637
25.59337	25	16.72754	30.66992
25.6014	25	16.38477	29.22266
25.60942	25	16.03809	27.80176
25.61744	16	15.66211	26.38965
25.62547	18	15.27344	25.00977
25.63349	31	14.88965	23.68555
25.64151	11	14.51855	22.4248
25.64954	18	14.1377	21.21191
25.65756	12	13.7627	20.0625
25.66558	12	13.4043	18.9873
25.6736	13	13.05078	17.97559
25.68163	12	12.68945	17.01367
25.68965	10	12.32715	16.10645
25.69767	11	11.95898	15.24707
25.7057	18	11.5918	14.43848
25.71372	13	11.22949	13.68359
25.72174	7	10.89941	13.00488
25.72977	13	10.56836	12.36719
25.73779	20	10.21777	11.74805
25.74581	9	9.862305	11.1582
25.75384	9	9.512695	10.60645
25.76186	13	9.208984	10.12793
25.76988	12	8.90332	9.672852
25.7779	11	8.587891	9.230469
25.78593	7	8.271484	8.805664
25.79395	6	7.958008	8.401367
25.80197	7	7.626953	7.993164
25.81	9	7.290039	7.592773
25.81802	8	6.959961	7.210938
25.82604	4	6.918945	7.125977
25.83407	6	6.856445	7.027344
25.84209	3	6.793945	6.935547
25.85011	12	6.852539	6.969727
25.85814	3	6.90625	7.004883
25.86616	5	6.958984	7.041992
25.87418	11	7.005859	7.076172
25.8822	6	7.041016	7.101563
25.89023	7	7.070313	7.123047
25.89825	13	7.092773	7.139648
25.90627	9	7.113281	7.154297
25.9143	10	7.132813	7.169922
25.92232	13	7.151367	7.185547
25.93034	11	7.162109	7.193359
25.93837	6	7.172852	7.202148
25.94639	12	7.211914	7.240234
25.95441	9	7.24707	7.273438
25.96243	6	7.275391	7.300781
25.97046	7	7.291992	7.316406
25.97848	5	7.300781	7.325195
25.98651	4	7.305664	7.329102
25.99453	5	7.307617	7.331055
26.00255	9	7.30957	7.333008
26.01057	7	7.352539	7.375
26.0186	14	7.388672	7.411133
26.02662	6	7.419922	7.442383
26.03464	8	7.436523	7.458984
26.04267	14	7.446289	7.467773
26.05069	6	7.449219	7.470703
26.05871	6	7.449219	7.470703
26.06674	6	7.449219	7.470703
26.07476	9	7.498047	7.519531
26.08278	10	7.541992	7.563477
26.09081	9	7.584961	7.607422
26.09883	8	7.624023	7.645508
26.10685	5	7.65918	7.680664
26.11487	11	7.691406	7.712891
26.1229	8	7.720703	7.743164
26.13092	6	7.749023	7.770508
26.13894	11	7.776367	7.797852
26.14697	8	7.802734	7.825195
26.15499	5	7.829102	7.851563
26.16301	15	7.854492	7.87793
26.17104	11	7.880859	7.90332
26.17906	10	7.905273	7.928711
26.18708	9	7.926758	7.951172
26.1951	12	7.944336	7.96875
26.20313	10	7.958984	7.983398
26.21115	12	7.969727	7.994141
26.21917	10	7.978516	8.003906
26.2272	12	7.987305	8.012695
26.23522	11	8.024414	8.050781
26.24324	7	8.056641	8.083984
26.25127	10	8.083008	8.111328
26.25929	11	8.098633	8.126953
26.26731	10	8.108398	8.137695
26.27534	10	8.113281	8.143555
26.28336	12	8.116211	8.147461
26.29138	11	8.119141	8.151367
26.2994	10	8.164063	8.197266
26.30743	9	8.203125	8.238281
26.31545	9	8.243164	8.279297
26.32347	7	8.277344	8.31543
26.3315	8	8.307617	8.34668
26.33952	6	8.335938	8.376953
26.34754	10	8.363281	8.405273
26.35557	14	8.390625	8.43457
26.36359	13	8.421875	8.467773
26.37161	10	8.453125	8.5
26.37963	12	8.481445	8.530273
26.38766	16	8.507813	8.55957
26.39568	8	8.532227	8.586914
26.4037	10	8.555664	8.612305
26.41173	15	8.578125	8.636719
26.41975	15	8.598633	8.661133
26.42777	11	8.618164	8.683594
26.4358	19	8.635742	8.704102
26.44382	9	8.652344	8.723633
26.45184	11	8.667969	8.743164
26.45987	11	8.692383	8.772461
26.46789	11	8.714844	8.797852
26.47591	10	8.735352	8.822266
26.48393	15	8.750977	8.84375
26.49196	5	8.765625	8.862305
26.49998	15	8.775391	8.87793
26.508	12	8.78418	8.891602
26.51603	9	8.791992	8.90625
26.52405	13	8.826172	8.945313
26.53207	12	8.855469	8.981445
26.5401	7	8.885742	9.017578
26.54812	22	8.915039	9.054688
26.55614	12	8.943359	9.09082
26.56417	9	8.969727	9.124023
26.57219	12	8.994141	9.157227
26.58021	21	9.017578	9.189453
26.58823	8	9.040039	9.22168
26.59626	11	9.0625	9.25293
26.60428	8	9.083984	9.28418
26.6123	9	9.103516	9.314453
26.62033	7	9.124023	9.344727
26.62835	15	9.141602	9.374023
26.63637	7	9.15918	9.40332
26.6444	15	9.174805	9.431641
26.65242	14	9.19043	9.459961
26.66044	7	9.207031	9.489258
26.66846	14	9.222656	9.518555
26.67649	8	9.237305	9.547852
26.68451	8	9.25	9.574219
26.69254	11	9.260742	9.600586
26.70056	16	9.271484	9.626953
26.70858	11	9.288086	9.660156
26.7166	10	9.303711	9.691406
26.72463	5	9.31543	9.720703
26.73265	10	9.326172	9.749023
26.74067	18	9.335938	9.777344
26.7487	5	9.350586	9.810547
26.75672	8	9.357422	9.836914
26.76474	5	9.364258	9.863281
26.77277	12	9.381836	9.902344
26.78079	7	9.400391	9.941406
26.78881	9	9.435547	9.998047
26.79683	14	9.464844	10.05078
26.80486	7	9.495117	10.10352
26.81288	7	9.524414	10.15723
26.8209	13	9.554688	10.21191
26.82893	14	9.581055	10.2627
26.83695	10	9.603516	10.31152
26.84497	12	9.626953	10.36133
26.853	5	9.650391	10.41211
26.86102	13	9.670898	10.46094
26.86904	8	9.688477	10.50781
26.87707	15	9.705078	10.55273
26.88509	10	9.720703	10.59961
26.89311	12	9.74707	10.65625
26.90113	10	9.770508	10.71289
26.90916	9	9.788086	10.7627
26.91718	7	9.801758	10.81055
26.9252	8	9.816406	10.8584
26.93323	14	9.84375	10.92188
26.94125	13	9.869141	10.9834
26.94927	16	9.887695	11.03809
26.9573	15	9.902344	11.08984
26.96532	12	9.916992	11.14355
26.97334	15	9.946289	11.21094
26.98137	10	9.970703	11.27539
26.98939	12	9.988281	11.33398
26.99741	16	10.00293	11.39063
27.00543	13	10.01855	11.44727
27.01346	12	10.05078	11.52246
27.02148	4	10.08105	11.5957
27.0295	14	10.10547	11.66309
27.03753	8	10.12598	11.72852
27.04555	10	10.14648	11.79395
27.05357	13	10.17383	11.86621
27.0616	11	10.19824	11.93555
27.06962	12	10.2207	12.00488
27.07764	12	10.24121	12.07227
27.08566	11	10.26074	12.1377
27.09369	17	10.27637	12.20117
27.10171	9	10.29102	12.2627
27.10973	9	10.30469	12.32422
27.11776	16	10.32617	12.39355
27.12578	19	10.34668	12.46191
27.1338	14	10.35938	12.52246
27.14183	14	10.36816	12.5791
27.14985	18	10.37695	12.63574
27.15787	9	10.40918	12.71582
27.1659	14	10.43652	12.79102
27.17392	10	10.45801	12.86035
27.18194	12	10.47754	12.92676
27.18996	13	10.49707	12.99316
27.19799	14	10.52539	13.06836
27.20601	16	10.5498	13.13867
27.21403	11	10.57324	13.20801
27.22206	11	10.59375	13.27441
27.23008	12	10.61426	13.33887
27.2381	19	10.63086	13.39941
27.24613	10	10.64453	13.45703
27.25415	10	10.65918	13.51367
27.26217	9	10.68262	13.5791
27.2702	14	10.70508	13.64258
27.27822	26	10.71973	13.69727
27.28624	16	10.73047	13.74805
27.29426	15	10.74219	13.79785
27.30229	16	10.77051	13.86328
27.31031	10	10.7959	13.9248
27.31833	13	10.81348	13.97754
27.32636	10	10.82715	14.02539
27.33438	13	10.8418	14.07227
27.3424	14	10.86914	14.13086
27.35043	16	10.89258	14.18457
27.35845	27	10.91016	14.23145
27.36647	22	10.92578	14.27441
27.37449	13	10.94141	14.31543
27.38252	13	10.96777	14.36621
27.39054	20	10.99023	14.41309
27.39857	13	11.00977	14.4541
27.40659	15	11.02832	14.49219
27.41461	17	11.0459	14.5293
27.42263	16	11.06934	14.56934
27.43066	18	11.08984	14.60547
27.43868	12	11.10938	14.63867
27.4467	14	11.12695	14.66895
27.45473	20	11.14453	14.69727
27.46275	10	11.1582	14.71973
27.47077	8	11.16992	14.73926
27.4788	10	11.18164	14.75684
27.48682	19	11.20313	14.78223
27.49484	19	11.22266	14.80469
27.50286	21	11.23535	14.81836
27.51089	13	11.24414	14.82617
27.51891	10	11.25391	14.83398
27.52693	16	11.28125	14.85742
27.53496	22	11.30664	14.87695
27.54298	16	11.3252	14.88867
27.551	9	11.33984	14.89453
27.55903	10	11.35449	14.89941
27.56705	28	11.37988	14.91309
27.57507	13	11.40234	14.92188
27.5831	14	11.4209	14.92676
27.59112	8	11.43848	14.92773
27.59914	15	11.45605	14.92773
27.60716	12	11.4707	14.9248
27.61519	10	11.48438	14.91797
27.62321	23	11.49707	14.90918
27.63123	16	11.51367	14.90332
27.63926	19	11.5293	14.89551
27.64728	16	11.54004	14.88086
27.6553	17	11.54785	14.86328
27.66333	12	11.55566	14.84375
27.67135	12	11.5791	14.83984
27.67937	10	11.60254	14.83398
27.6874	11	11.62109	14.82324
27.69542	17	11.63867	14.80957
27.70344	16	11.65625	14.7959
27.71146	19	11.67383	14.78125
27.71949	9	11.69141	14.76563
27.72751	16	11.70801	14.74805
27.73553	13	11.72363	14.72949
27.74356	13	11.7373	14.70898
27.75158	16	11.75	14.68652
27.7596	10	11.7627	14.66309
27.76763	12	11.78027	14.64453
27.77565	15	11.7959	14.62402
27.78367	14	11.81152	14.60254
27.79169	17	11.82715	14.58008
27.79972	14	11.83984	14.55566
27.80774	11	11.85156	14.5293
27.81576	11	11.8623	14.50195
27.82379	13	11.87305	14.47461
27.83181	14	11.89063	14.4541
27.83983	9	11.90625	14.43164
27.84786	11	11.92188	14.4082
27.85588	17	11.93848	14.38672
27.8639	14	11.95215	14.36133
27.87193	10	11.96289	14.33496
27.87995	26	11.97266	14.30664
27.88797	16	11.98242	14.27832
27.89599	13	12	14.25684
27.90402	13	12.01758	14.2373
27.91204	17	12.03516	14.2168
27.92006	17	12.05078	14.19531
27.92809	15	12.06543	14.17188
27.93611	10	12.07813	14.14844
27.94413	8	12.08984	14.12402
27.95216	12	12.10059	14.09766
27.96018	8	12.11133	14.07227
27.9682	13	12.11914	14.04492
27.97622	12	12.12598	14.0166
27.98425	7	12.13281	13.98926
27.99227	13	12.14453	13.96777
28.00029	16	12.15332	13.94238
28.00832	14	12.16211	13.91895
28.01634	17	12.17383	13.89941
28.02436	16	12.18262	13.87695
28.03239	8	12.19141	13.85547
28.04041	13	12.20996	13.8457
28.04843	13	12.22363	13.83008
28.05646	18	12.2373	13.81641
28.06448	20	12.25488	13.80859
28.0725	15	12.26855	13.79883
28.08052	11	12.2832	13.79004
28.08855	15	12.29785	13.78418
28.09657	12	12.3125	13.7793
28.1046	11	12.32715	13.77637
28.11262	15	12.33594	13.77051
28.12064	15	12.34473	13.7666
28.12866	20	12.35938	13.77051
28.13669	14	12.36816	13.77148
28.14471	20	12.37793	13.77637
28.15273	16	12.39648	13.79297
28.16076	14	12.41309	13.81152
28.16878	5	12.42773	13.83008
28.1768	19	12.43848	13.84961
28.18483	16	12.44824	13.87207
28.19285	13	12.45703	13.89551
28.20087	15	12.46387	13.92188
28.20889	19	12.4707	13.95215
28.21692	16	12.47461	13.9834
28.22494	8	12.47656	14.01563
28.23296	8	12.47852	14.05273
28.24099	18	12.4834	14.0957
28.24901	20	12.4834	14.13867
28.25703	13	12.48438	14.18457
28.26506	16	12.5	14.25
28.27308	17	12.50781	14.31055
28.2811	11	12.51563	14.37402
28.28913	14	12.5332	14.44922
28.29715	10	12.54004	14.51758
28.30517	10	12.54688	14.58789
28.31319	10	12.57324	14.67871
28.32122	16	12.59863	14.77051
28.32924	14	12.61328	14.85352
28.33726	15	12.62207	14.93066
28.34529	18	12.63086	15.00879
28.35331	14	12.64746	15.0957
28.36133	17	12.65918	15.17676
28.36936	14	12.6709	15.25781
28.37738	12	12.6875	15.34375
28.3854	18	12.70117	15.42578
28.39342	15	12.71289	15.50391
28.40145	16	12.72363	15.5791
28.40947	19	12.73242	15.65039
28.41749	14	12.74023	15.71875
28.42552	11	12.74707	15.7832
28.43354	20	12.75391	15.84375
28.44156	9	12.76074	15.90137
28.44959	22	12.76367	15.9502
28.45761	9	12.76465	15.99414
28.46563	23	12.76172	16.0293
28.47366	25	12.75684	16.05664
28.48168	17	12.75195	16.07813
28.4897	16	12.76172	16.1084
28.49772	13	12.76367	16.125
28.50575	18	12.76563	16.13477
28.51377	13	12.77832	16.14746
28.52179	20	12.7793	16.14063
28.52982	18	12.7793	16.12598
28.53784	20	12.81543	16.13867
28.54586	17	12.84863	16.1416
28.55389	11	12.86426	16.11719
28.56191	21	12.87012	16.07617
28.56993	7	12.87695	16.02734
28.57796	16	12.89355	15.98145
28.58598	12	12.90332	15.91992
28.594	20	12.91309	15.85254
28.60202	13	12.93262	15.78809
28.61005	15	12.94824	15.71289
28.61807	19	12.96094	15.62891
28.62609	19	12.97168	15.53906
28.63412	17	12.97949	15.44141
28.64214	11	12.98535	15.33887
28.65016	18	12.99121	15.2334
28.65819	15	12.99707	15.125
28.66621	12	13.00195	15.0166
28.67423	7	13.00781	14.90723
28.68225	13	13.00879	14.79492
28.69028	18	13.00879	14.68262
28.6983	13	13.00879	14.57227
28.70632	20	13.00879	14.46387
28.71435	18	13.00977	14.36035
28.72237	21	13.00586	14.25684
28.73039	14	13.00293	14.15625
28.73842	12	13.00977	14.07227
28.74644	7	13.00293	13.97852
28.75446	12	12.99707	13.88965
28.76249	9	13.03906	13.85645
28.77051	13	13.07813	13.82422
28.77853	15	13.09668	13.77734
28.78655	13	13.10449	13.72559
28.79458	14	13.1123	13.67871
28.8026	18	13.12793	13.64551
28.81063	14	13.13574	13.60938
28.81865	29	13.14355	13.57813
28.82667	13	13.16602	13.56543
28.83469	18	13.18359	13.55371
28.84272	8	13.19824	13.54297
28.85074	23	13.21191	13.53516
28.85876	10	13.21973	13.52637
28.86679	20	13.22559	13.51758
28.87481	15	13.22949	13.51172
28.88283	25	13.2334	13.50781
28.89086	17	13.2373	13.50684
28.89888	11	13.24023	13.50781
28.9069	11	13.23828	13.50586
28.91492	11	13.23535	13.50488
28.92295	14	13.24512	13.51953
28.93097	16	13.25195	13.53223
28.93899	9	13.25098	13.53906
28.94702	20	13.24609	13.54297
28.95504	11	13.24121	13.54785
28.96306	16	13.24414	13.5625
28.97109	13	13.22949	13.55957
28.97911	11	13.21582	13.55859
28.98713	12	13.28027	13.63672
28.99516	16	13.33594	13.70703
29.00318	17	13.37012	13.75586
29.0112	9	13.39453	13.79492
29.01922	11	13.41797	13.83398
29.02725	17	13.43457	13.86621
29.03527	21	13.44531	13.8916
29.04329	18	13.45508	13.91797
29.05132	10	13.48828	13.96582
29.05934	22	13.51855	14.0127
29.06736	11	13.54395	14.05273
29.07539	14	13.56543	14.08984
29.08341	16	13.58105	14.12012
29.09143	20	13.59375	14.14746
29.09945	9	13.60449	14.17188
29.10748	16	13.61328	14.19336
29.1155	16	13.62109	14.21387
29.12352	17	13.62012	14.22559
29.13155	15	13.61621	14.23242
29.13957	9	13.6123	14.23828
29.14759	17	13.64063	14.27637
29.15562	20	13.65918	14.30469
29.16364	10	13.67285	14.32422
29.17166	20	13.68066	14.33887
29.17969	18	13.68652	14.35059
29.18771	17	13.67578	14.34277
29.19573	15	13.65625	14.32617
29.20375	20	13.63672	14.30859
29.21178	22	13.69629	14.36816
29.2198	17	13.74805	14.41895
29.22782	14	13.78613	14.45508
29.23585	15	13.81152	14.47656
29.24387	16	13.83008	14.49121
29.25189	11	13.84082	14.49609
29.25992	23	13.84766	14.49609
29.26794	13	13.85449	14.49512
29.27596	15	13.8916	14.52344
29.28399	15	13.92773	14.55078
29.29201	21	13.95117	14.56445
29.30003	18	13.96875	14.57227
29.30805	20	13.98535	14.57813
29.31608	21	14.00098	14.58301
29.3241	14	14.0166	14.58789
29.33212	21	14.02441	14.58496
29.34015	16	14.0293	14.5791
29.34817	18	14.03027	14.56934
29.35619	23	14.0293	14.55957
29.36422	9	14.0293	14.5498
29.37224	14	14.05371	14.56543
29.38026	18	14.06836	14.57227
29.38828	18	14.08301	14.58008
29.39631	20	14.09082	14.58105
29.40433	16	14.09375	14.5791
29.41236	26	14.08301	14.56445
29.42038	17	14.06543	14.54297
29.4284	15	14.04785	14.52344
29.43642	18	14.09863	14.57227
29.44445	14	14.1416	14.61426
29.45247	13	14.17969	14.65332
29.46049	26	14.20313	14.67773
29.46852	14	14.21777	14.69629
29.47654	23	14.22559	14.70703
29.48456	15	14.23047	14.71484
29.49258	14	14.23438	14.72363
29.50061	15	14.27051	14.7666
29.50863	15	14.30469	14.80664
29.51665	19	14.32715	14.83594
29.52468	22	14.34375	14.85938
29.5327	25	14.36035	14.88379
29.54072	14	14.37695	14.9082
29.54875	27	14.39258	14.93359
29.55677	22	14.40332	14.95313
29.56479	24	14.41113	14.96973
29.57281	16	14.41699	14.98535
29.58084	13	14.42285	15.00098
29.58886	19	14.42773	15.01758
29.59689	13	14.44336	15.04297
29.60491	14	14.45508	15.06445
29.61293	16	14.46582	15.08691
29.62095	16	14.46973	15.10059
29.62898	18	14.46875	15.11133
29.637	19	14.46289	15.11621
29.64502	22	14.4541	15.11816
29.65305	20	14.44531	15.12012
29.66107	19	14.48145	15.16699
29.66909	24	14.5127	15.20898
29.67712	22	14.54297	15.25
29.68514	14	14.55957	15.27832
29.69316	21	14.57129	15.30078
29.70119	21	14.57715	15.31641
29.70921	16	14.58008	15.33008
29.71723	19	14.58301	15.34375
29.72525	27	14.61328	15.38477
29.73328	20	14.64063	15.42188
29.7413	24	14.66309	15.4541
29.74932	16	14.67969	15.48047
29.75735	22	14.69336	15.50391
29.76537	17	14.70313	15.52441
29.77339	23	14.71191	15.54199
29.78142	13	14.7207	15.56055
29.78944	16	14.73242	15.58105
29.79746	25	14.74414	15.60156
29.80548	18	14.75195	15.61719
29.81351	25	14.75684	15.63086
29.82153	20	14.76172	15.64453
29.82955	10	14.76855	15.66016
29.83758	17	14.77344	15.67188
29.8456	18	14.77734	15.68359
29.85362	15	14.79004	15.70313
29.86165	16	14.80273	15.72266
29.86967	21	14.80957	15.7373
29.87769	17	14.81445	15.74805
29.88572	20	14.81836	15.75879
29.89374	19	14.82422	15.77051
29.90176	14	14.8291	15.78223
29.90978	16	14.83496	15.79199
29.91781	26	14.8457	15.80859
29.92583	18	14.85742	15.8252
29.93385	21	14.86914	15.84082
29.94188	11	14.87988	15.85645
29.9499	15	14.8916	15.87207
29.95792	12	14.90234	15.8877
29.96595	18	14.91211	15.90039
29.97397	14	14.91895	15.91016
29.98199	20	14.92383	15.91797
29.99002	24	14.92773	15.92383
29.99804	19	14.93066	15.92969
30.00606	14	14.93359	15.93359
30.01408	15	14.94629	15.94922
30.02211	22	14.95898	15.96191
30.03013	21	14.96484	15.96973
30.03815	19	14.9668	15.97266
30.04618	20	14.96777	15.97363
30.0542	12	14.96387	15.96973
30.06222	18	14.95801	15.96387
30.07025	14	14.95313	15.95801
30.07827	17	14.97266	15.97656
30.08629	17	14.98438	15.98828
30.09431	19	14.99121	15.99316
30.10234	17	14.99121	15.99219
30.11036	11	14.98926	15.98828
30.11839	11	14.98438	15.98047
30.12641	18	14.97852	15.97266
30.13443	16	14.97266	15.96289
30.14245	12	14.96973	15.95801
30.15048	23	15.00293	15.98828
30.1585	12	15.03516	16.01563
30.16652	16	15.06543	16.04199
30.17455	15	15.0957	16.06836
30.18257	19	15.12109	16.08984
30.19059	11	15.14551	16.10938
30.19862	21	15.16797	16.12695
30.20664	16	15.19043	16.14453
30.21466	15	15.20996	16.15918
30.22268	23	15.22754	16.17188
30.23071	11	15.24512	16.18359
30.23873	21	15.25781	16.18945
30.24675	21	15.26758	16.19434
30.25478	23	15.27734	16.19727
30.2628	24	15.28613	16.19922
30.27082	24	15.29395	16.20117
30.27884	17	15.30762	16.20801
30.28687	15	15.31934	16.21289
30.29489	16	15.32422	16.21094
30.30292	20	15.32617	16.20508
30.31094	16	15.32813	16.19922
30.31896	20	15.35156	16.21484
30.32698	10	15.37012	16.22656
30.33501	19	15.38965	16.23828
30.34303	14	15.41016	16.25098
30.35105	23	15.42871	16.26172
30.35908	20	15.44531	16.26953
30.3671	17	15.45996	16.27637
30.37512	23	15.47461	16.2832
30.38315	18	15.49316	16.29297
30.39117	19	15.51074	16.30273
30.39919	12	15.52637	16.30957
30.40722	17	15.54004	16.31445
30.41524	8	15.55371	16.31934
30.42326	13	15.56543	16.32227
30.43128	25	15.57617	16.32422
30.43931	17	15.58398	16.32324
30.44733	22	15.59082	16.32129
30.45535	24	15.59668	16.31836
30.46338	20	15.60059	16.31445
30.4714	26	15.60547	16.30957
30.47942	18	15.60547	16.30176
30.48745	19	15.60449	16.29102
30.49547	20	15.60352	16.28125
30.50349	17	15.60742	16.27539
30.51151	19	15.61035	16.27051
30.51954	19	15.60156	16.25293
30.52756	14	15.58789	16.22949
30.53558	15	15.57324	16.20703
30.54361	23	15.61035	16.23535
30.55163	15	15.64746	16.2627
30.55965	27	15.6709	16.27832
30.56768	12	15.68945	16.28809
30.5757	27	15.70117	16.29102
30.58372	11	15.70996	16.29102
30.59175	17	15.71875	16.29102
30.59977	16	15.74023	16.30371
30.60779	23	15.75977	16.31641
30.61581	27	15.78027	16.32813
30.62384	13	15.79297	16.33203
30.63186	15	15.80176	16.33301
30.63988	21	15.80762	16.33008
30.64791	23	15.8125	16.32715
30.65593	20	15.81641	16.32324
30.66395	13	15.83105	16.33008
30.67198	22	15.8457	16.33594
30.68	17	15.85547	16.33789
30.68802	18	15.86133	16.33594
30.69604	25	15.86523	16.33301
30.70407	20	15.86621	16.32617
30.71209	17	15.86621	16.31836
30.72011	14	15.85742	16.30273
30.72814	14	15.8457	16.2832
30.73616	14	15.83301	16.2627
30.74418	13	15.81836	16.24121
30.75221	18	15.80371	16.21973
30.76023	19	15.82031	16.22949
30.76825	20	15.85938	16.26074
30.77628	15	15.89844	16.29297
30.7843	13	15.9209	16.30762
30.79232	13	15.93457	16.31543
30.80034	17	15.94336	16.31738
30.80837	20	15.94922	16.31641
30.81639	17	15.95508	16.31543
30.82442	20	15.99219	16.34473
30.83244	20	16.02148	16.36816
30.84046	17	16.04785	16.38867
30.84848	24	16.06543	16.39941
30.85651	20	16.07813	16.40527
30.86453	27	16.08789	16.40918
30.87255	24	16.09766	16.41211
30.88058	20	16.10645	16.41602
30.8886	29	16.12305	16.42578
30.89662	28	16.13867	16.43555
30.90465	23	16.14941	16.44043
30.91267	16	16.15723	16.44336
30.92069	21	16.16309	16.44336
30.92871	19	16.16602	16.44141
30.93674	26	16.16992	16.43945
30.94476	16	16.16504	16.43066
30.95278	22	16.15723	16.41797
30.96081	14	16.14258	16.39941
30.96883	26	16.12598	16.37891
30.97685	14	16.10938	16.3584
30.98488	19	16.1543	16.40039
30.9929	16	16.19434	16.43848
31.00092	18	16.22949	16.4707
31.00895	19	16.25	16.49023
31.01697	19	16.2627	16.50195
31.02499	28	16.27051	16.50977
31.03301	16	16.27539	16.51563
31.04104	18	16.28027	16.52246
31.04906	20	16.31543	16.55859
31.05708	23	16.34277	16.59082
31.06511	25	16.36328	16.61523
31.07313	29	16.37988	16.63574
31.08115	13	16.39551	16.6582
31.08918	18	16.41016	16.68066
31.0972	24	16.4248	16.7041
31.10522	16	16.43457	16.72363
31.11325	16	16.44238	16.74219
31.12127	18	16.44922	16.76074
31.12929	21	16.4541	16.7793
31.13731	15	16.45801	16.79785
31.14534	29	16.45996	16.81641
31.15336	16	16.46191	16.83594
31.16138	22	16.46387	16.85547
31.16941	26	16.46191	16.87207
31.17743	20	16.45703	16.88672
31.18545	27	16.44629	16.89648
31.19348	16	16.43164	16.90332
31.2015	18	16.41797	16.91016
31.20952	20	16.45313	16.96777
31.21754	17	16.48242	17.01855
31.22557	24	16.51172	17.06934
31.23359	18	16.53906	17.11816
31.24161	15	16.56152	17.16016
31.24964	19	16.5791	17.19727
31.25766	21	16.59473	17.23145
31.26568	26	16.60938	17.26465
31.27371	15	16.62695	17.29688
31.28173	18	16.63965	17.3252
31.28975	23	16.64844	17.3457
31.29778	20	16.65527	17.3623
31.3058	17	16.66113	17.37695
31.31382	18	16.67383	17.39453
31.32184	19	16.68164	17.40625
31.32987	16	16.68164	17.40723
31.33789	20	16.67871	17.40234
31.34591	18	16.6748	17.39551
31.35394	33	16.66797	17.38184
31.36196	25	16.65527	17.36035
31.36998	19	16.6416	17.33594
31.37801	13	16.63867	17.31934
31.38603	31	16.63379	17.29883
31.39405	17	16.61328	17.26074
31.40207	24	16.58496	17.21289
31.4101	13	16.55664	17.16406
31.41812	23	16.60938	17.19434
31.42614	19	16.65527	17.21777
31.43417	18	16.68164	17.21875
31.44219	21	16.69727	17.20996
31.45021	20	16.71289	17.2002
31.45824	14	16.72559	17.18652
31.46626	19	16.73145	17.16602
31.47428	15	16.73633	17.14648
31.48231	28	16.76758	17.15137
31.49033	16	16.79883	17.1582
31.49835	17	16.81641	17.15039
31.50637	17	16.82617	17.1377
31.5144	16	16.83203	17.12012
31.52242	21	16.83496	17.10156
31.53045	20	16.83789	17.08398
31.53847	21	16.85547	17.08301
31.54649	21	16.87012	17.07813
31.55451	20	16.86816	17.06055
31.56254	19	16.85938	17.03516
31.57056	21	16.85059	17.01172
31.57858	17	16.84375	16.99316
31.58661	15	16.82813	16.96484
31.59463	21	16.81152	16.93848
31.60265	13	16.79395	16.91113
31.61068	20	16.77344	16.88281
31.6187	18	16.73242	16.83398
31.62672	22	16.67969	16.77539
31.63474	16	16.62695	16.71875
31.64277	16	16.72168	16.80957
31.65079	14	16.79883	16.88379
31.65881	22	16.85449	16.9375
31.66684	17	16.89648	16.97852
31.67486	20	16.93164	17.0127
31.68288	9	16.95605	17.03809
31.69091	14	16.97656	17.05957
31.69893	15	16.99609	17.08203
31.70695	22	17.04492	17.13281
31.71498	15	17.0918	17.18262
31.723	21	17.12695	17.2207
31.73102	24	17.15625	17.25391
31.73904	25	17.17773	17.28027
31.74707	22	17.19629	17.30273
31.75509	15	17.21387	17.3252
31.76311	17	17.23535	17.35254
31.77114	16	17.25391	17.37598
31.77916	16	17.26172	17.38867
31.78718	19	17.2627	17.39551
31.79521	19	17.26367	17.40234
31.80323	17	17.28418	17.42871
31.81125	13	17.29395	17.44336
31.81927	17	17.29785	17.45313
31.8273	15	17.29688	17.45703
31.83532	22	17.29297	17.45801
31.84334	13	17.27246	17.44141
31.85137	18	17.24316	17.41699
31.85939	28	17.21387	17.3916
31.86741	19	17.29395	17.47559
31.87544	27	17.36035	17.5459
31.88346	23	17.41016	17.59766
31.89148	24	17.44629	17.63672
31.89951	16	17.47559	17.66797
31.90753	18	17.49707	17.69043
31.91555	19	17.51465	17.70898
31.92357	16	17.53223	17.72656
31.9316	21	17.57813	17.77246
31.93962	18	17.62109	17.81445
31.94764	21	17.65527	17.84863
31.95567	23	17.68555	17.87695
31.96369	25	17.70996	17.89844
31.97171	18	17.73047	17.91699
31.97974	19	17.75195	17.93457
31.98776	22	17.76855	17.94824
31.99578	15	17.78223	17.95801
32.00381	12	17.79297	17.96387
32.01183	19	17.80176	17.96777
32.01985	22	17.81055	17.97168
32.02787	18	17.83105	17.98633
32.0359	20	17.8418	17.99121
32.04392	20	17.84863	17.99219
32.05194	18	17.85156	17.99023
32.05997	24	17.85352	17.98535
32.06799	22	17.84277	17.96777
32.07601	21	17.82422	17.94336
32.08404	17	17.80566	17.91797
32.09206	15	17.86816	17.97461
32.10008	22	17.92285	18.02246
32.1081	19	17.95801	18.05176
32.11613	19	17.9834	18.07129
32.12415	25	18.00879	18.09082
32.13218	19	18.0332	18.10938
32.1402	30	18.05176	18.12207
32.14822	18	18.06934	18.13477
32.15624	19	18.10547	18.16504
32.16427	18	18.1377	18.19238
32.17229	25	18.16211	18.21191
32.18031	24	18.18262	18.22852
32.18834	26	18.2041	18.24512
32.19636	18	18.22461	18.26172
32.20438	26	18.24121	18.27539
32.21241	23	18.25879	18.29004
32.22043	20	18.2793	18.30762
32.22845	28	18.2998	18.3252
32.23647	27	18.31836	18.34082
32.2445	19	18.33398	18.35547
32.25252	16	18.34766	18.36621
32.26054	16	18.3584	18.37598
32.26857	23	18.37012	18.38574
32.27659	29	18.38281	18.39648
32.28461	17	18.39551	18.4082
32.29264	13	18.40039	18.41211
32.30066	23	18.40137	18.41309
32.30868	20	18.40137	18.41309
32.3167	12	18.42871	18.43945
32.32473	28	18.45313	18.46387
32.33275	20	18.46582	18.47656
32.34077	23	18.47363	18.48438
32.3488	18	18.48145	18.49219
32.35682	11	18.49902	18.50977
32.36484	25	18.5127	18.52344
32.37287	15	18.52539	18.53711
32.38089	20	18.53906	18.55078
32.38891	21	18.55176	18.56445
32.39693	18	18.56055	18.57324
32.40496	27	18.56543	18.5791
32.41298	23	18.57129	18.58496
32.42101	19	18.57715	18.59082
32.42903	22	18.58203	18.59766
32.43705	18	18.59277	18.6084
32.44507	20	18.60156	18.61719
32.4531	24	18.60352	18.62012
32.46112	14	18.60352	18.62012
32.46914	21	18.60254	18.62012
32.47717	27	18.625	18.64258
32.48519	21	18.63965	18.6582
32.49321	17	18.65332	18.6709
32.50124	23	18.66406	18.68262
32.50926	25	18.67578	18.69434
32.51728	21	18.68457	18.70313
32.5253	8	18.68945	18.70801
32.53333	18	18.69434	18.71191
32.54135	13	18.71094	18.72949
32.54937	19	18.72754	18.74512
32.5574	17	18.73535	18.75293
32.56542	26	18.74023	18.75781
32.57344	18	18.74512	18.76172
32.58147	28	18.75098	18.7666
32.58949	17	18.75586	18.77148
32.59751	19	18.76074	18.77539
32.60553	25	18.7627	18.77734
32.61356	23	18.75977	18.77344
32.62158	24	18.75293	18.76563
32.6296	24	18.74609	18.75879
32.63763	12	18.74023	18.75195
32.64565	16	18.72754	18.73926
32.65368	19	18.71582	18.72656
32.6617	16	18.71191	18.72168
32.66972	21	18.70801	18.7168
32.67774	15	18.69043	18.69824
32.68576	20	18.66211	18.66992
32.69379	25	18.63477	18.6416
32.70181	23	18.70898	18.71582
32.70984	15	18.7832	18.78906
32.71786	14	18.82324	18.82813
32.72588	17	18.8457	18.85059
32.73391	21	18.86816	18.87305
32.74193	23	18.9375	18.94141
32.74995	19	18.99805	19.00195
32.75797	28	19.03906	19.04297
32.766	16	19.07129	19.07422
32.77402	24	19.10352	19.10547
32.78204	15	19.16504	19.16699
32.79007	21	19.21289	19.21484
32.79809	20	19.25977	19.26172
32.80611	25	19.31836	19.32031
32.81414	25	19.37109	19.37305
32.82216	22	19.39844	19.39941
32.83018	15	19.41211	19.41309
32.8382	20	19.42578	19.42676
32.84623	0	0	0
